XDAC V1.4 Datafile V1
"LZU1.003" created on 12/5/2011 at 2:27:58 AM on X-23A2
Diffraction element= Si (311).  Ring energy= 2.80 GeV
E0= 17166.00
NUM_REGIONS= 5
SRB= -200 -150 -125 -35 135 8k
SRSS= 10 1 5 0.5 0.05k
SPP= 1 1 1 1 0.33k
Settling time= 0.20


Offsets= 0.00 54.75 93.75 0.00
Gains= 8.00 9.00 10.00 1.00
LZU1.


--------------------------------------------------------------------------------
        Energy            I0            It            Ir       IntTime
   16966.00184    41723.0000    13489.2500     4448.2500        1.0000
   16975.99929    56078.0000    18176.2500     5995.2500        1.0000
   16985.99769    56210.0000    18273.2500     6033.2500        1.0000
   16995.99704    56389.0000    18387.2500     6073.2500        1.0000
   17005.99735    56451.0000    18456.2500     6091.2500        1.0000
   17015.99859    56482.0000    18518.2500     6096.2500        1.0000
   17016.99737    56472.0000    18520.2500     6092.2500        1.0000
   17018.00315    56489.0000    18527.2500     6093.2500        1.0000
   17019.00195    56482.0000    18530.2500     6090.2500        1.0000
   17020.00075    56430.0000    18518.2500     6081.2500        1.0000
   17020.99957    56351.0000    18498.2500     6070.2500        1.0000
   17021.99840    56285.0000    18480.2500     6057.2500        1.0000
   17022.99724    56239.0000    18471.2500     6036.2500        1.0000
   17024.00307    56252.0000    18479.2500     6027.2500        1.0000
   17025.00192    56288.0000    18494.2500     6022.2500        1.0000
   17026.00079    56295.0000    18504.2500     6009.2500        1.0000
   17026.99966    56315.0000    18511.2500     5997.2500        1.0000
   17027.99854    56336.0000    18525.2500     5975.2500        1.0000
   17028.99744    56350.0000    18532.2500     5943.2500        1.0000
   17030.00333    56358.0000    18543.2500     5904.2500        1.0000
   17031.00224    56372.0000    18556.2500     5831.2500        1.0000
   17032.00116    56418.0000    18577.2500     5725.2500        1.0000
   17033.00009    56441.0000    18591.2500     5606.2500        1.0000
   17033.99903    56552.0000    18633.2500     5501.2500        1.0000
   17034.99798    56656.0000    18667.2500     5384.2500        1.0000
   17035.99694    56676.0000    18684.2500     5279.2500        1.0000
   17037.00289    56689.0000    18691.2500     5115.2500        1.0000
   17038.00187    56722.0000    18709.2500     4948.2500        1.0000
   17039.00086    56720.0000    18713.2500     4791.2500        1.0000
   17039.99986    56672.0000    18700.2500     4623.2500        1.0000
   17040.99886    56621.0000    18689.2500     4458.2500        1.0000
   17046.00102    56685.0000    18735.2500     3632.2500        1.0000
   17051.00341    56690.0000    18761.2500     3738.2500        1.0000
   17055.99905    56678.0000    18784.2500     3701.2500        1.0000
   17061.00192    56647.0000    18793.2500     3945.2500        1.0000
   17065.99802    56601.0000    18802.2500     4197.2500        1.0000
   17071.00136    56500.0000    18790.2500     4335.2500        1.0000
   17075.99793    56377.0000    18774.2500     4340.2500        1.0000
   17081.00173    56351.0000    18788.2500     4257.2500        1.0000
   17085.99878    56279.0000    18785.2500     4230.2500        1.0000
   17091.00305    56231.0000    18792.2500     4179.2500        1.0000
   17096.00056    56179.0000    18799.2500     4101.2500        1.0000
   17100.99830    56023.0000    18770.2500     4030.2500        1.0000
   17106.00327    56027.0000    18792.2500     4033.2500        1.0000
   17111.00148    55903.0000    18769.2500     4095.2500        1.0000
   17115.99992    55807.0000    18758.2500     4158.2500        1.0000
   17120.99859    55722.0000    18746.2500     4202.2500        1.0000
   17125.99750    55644.0000    18737.2500     4252.2500        1.0000
   17130.99663    55566.0000    18725.2500     4284.2500        1.0000
   17131.50006    55552.0000    18721.2500     4285.2500        1.0000
   17132.00348    55546.0000    18723.2500     4286.2500        1.0000
   17132.49992    55544.0000    18720.2500     4287.2500        1.0000
   17133.00334    55530.0000    18713.2500     4287.2500        1.0000
   17133.49978    55500.0000    18709.2500     4287.2500        1.0000
   17134.00322    55521.0000    18715.2500     4286.2500        1.0000
   17134.49966    55522.0000    18719.2500     4287.2500        1.0000
   17135.00310    55490.0000    18709.2500     4283.2500        1.0000
   17135.49955    55485.0000    18707.2500     4282.2500        1.0000
   17136.00299    55492.0000    18711.2500     4282.2500        1.0000
   17136.49945    55497.0000    18713.2500     4279.2500        1.0000
   17137.00290    55493.0000    18712.2500     4279.2500        1.0000
   17137.49935    55486.0000    18707.2500     4277.2500        1.0000
   17138.00281    55487.0000    18713.2500     4275.2500        1.0000
   17138.49927    55472.0000    18705.2500     4272.2500        1.0000
   17139.00273    55488.0000    18714.2500     4271.2500        1.0000
   17139.49919    55484.0000    18710.2500     4268.2500        1.0000
   17140.00266    55475.0000    18714.2500     4267.2500        1.0000
   17140.49913    55500.0000    18718.2500     4267.2500        1.0000
   17141.00259    55485.0000    18715.2500     4265.2500        1.0000
   17141.49907    55469.0000    18709.2500     4262.2500        1.0000
   17142.00254    55459.0000    18706.2500     4261.2500        1.0000
   17142.49902    55479.0000    18712.2500     4261.2500        1.0000
   17143.00250    55472.0000    18708.2500     4257.2500        1.0000
   17143.49898    55475.0000    18708.2500     4257.2500        1.0000
   17144.00246    55496.0000    18714.2500     4258.2500        1.0000
   17144.49895    55476.0000    18707.2500     4254.2500        1.0000
   17145.00244    55470.0000    18703.2500     4251.2500        1.0000
   17145.49894    55446.0000    18695.2500     4248.2500        1.0000
   17146.00242    55444.0000    18695.2500     4246.2500        1.0000
   17146.49892    55478.0000    18707.2500     4247.2500        1.0000
   17147.00242    55448.0000    18695.2500     4245.2500        1.0000
   17147.49892    55456.0000    18693.2500     4241.2500        1.0000
   17148.00242    55445.0000    18687.2500     4239.2500        1.0000
   17148.49893    55451.0000    18686.2500     4237.2500        1.0000
   17149.00243    55461.0000    18688.2500     4238.2500        1.0000
   17149.49895    55447.0000    18678.2500     4234.2500        1.0000
   17150.00246    55448.0000    18672.2500     4232.2500        1.0000
   17150.49897    55421.0000    18662.2500     4228.2500        1.0000
   17151.00249    55426.0000    18659.2500     4227.2500        1.0000
   17151.49901    55423.0000    18650.2500     4225.2500        1.0000
   17152.00253    55453.0000    18655.2500     4226.2500        1.0000
   17152.49905    55426.0000    18641.2500     4223.2500        1.0000
   17153.00258    55420.0000    18628.2500     4222.2500        1.0000
   17153.49911    55457.0000    18629.2500     4222.2500        1.0000
   17154.00264    55447.0000    18615.2500     4219.2500        1.0000
   17154.49917    55430.0000    18597.2500     4217.2500        1.0000
   17155.00270    55441.0000    18592.2500     4216.2500        1.0000
   17155.49924    55425.0000    18572.2500     4213.2500        1.0000
   17156.00278    55435.0000    18561.2500     4212.2500        1.0000
   17156.49933    55408.0000    18532.2500     4205.2500        1.0000
   17157.00287    55404.0000    18508.2500     4202.2500        1.0000
   17157.49942    55405.0000    18483.2500     4196.2500        1.0000
   17158.00296    55400.0000    18455.2500     4190.2500        1.0000
   17158.49952    55383.0000    18416.2500     4182.2500        1.0000
   17159.00307    55384.0000    18387.2500     4174.2500        1.0000
   17159.49963    55419.0000    18355.2500     4168.2500        1.0000
   17160.00318    55393.0000    18308.2500     4158.2500        1.0000
   17160.49974    55374.0000    18255.2500     4146.2500        1.0000
   17161.00330    55388.0000    18218.2500     4138.2500        1.0000
   17161.49987    55408.0000    18173.2500     4128.2500        1.0000
   17162.00344    55421.0000    18125.2500     4116.2500        1.0000
   17162.50001    55401.0000    18067.2500     4104.2500        1.0000
   17162.99658    55413.0000    17991.2500     4088.2500        1.0000
   17163.50015    55395.0000    17906.2500     4069.2500        1.0000
   17163.99673    55402.0000    17824.2500     4050.2500        1.0000
   17164.50031    55415.0000    17761.2500     4036.2500        1.0000
   17164.99689    55424.0000    17690.2500     4022.2500        1.0000
   17165.50047    55454.0000    17602.2500     4002.2500        1.0000
   17165.99706    55449.0000    17518.2500     3983.2500        1.0000
   17166.50065    55441.0000    17446.2500     3968.2500        1.0000
   17166.99724    55450.0000    17378.2500     3953.2500        1.0000
   17167.50083    55443.0000    17315.2500     3940.2500        1.0000
   17167.99743    55459.0000    17276.2500     3930.2500        1.0000
   17168.50102    55447.0000    17235.2500     3921.2500        1.0000
   17168.99763    55447.0000    17205.2500     3915.2500        1.0000
   17169.50123    55471.0000    17189.2500     3911.2500        1.0000
   17169.99783    55474.0000    17160.2500     3904.2500        1.0000
   17170.50144    55471.0000    17128.2500     3897.2500        1.0000
   17170.99805    55472.0000    17098.2500     3889.2500        1.0000
   17171.50166    55474.0000    17069.2500     3883.2500        1.0000
   17171.99827    55492.0000    17040.2500     3878.2500        1.0000
   17172.50188    55505.0000    17018.2500     3869.2500        1.0000
   17172.99851    55508.0000    16995.2500     3866.2500        1.0000
   17173.50212    55507.0000    16978.2500     3861.2500        1.0000
   17173.99875    55515.0000    16972.2500     3858.2500        1.0000
   17174.50237    55504.0000    16973.2500     3858.2500        1.0000
   17174.99900    55516.0000    16982.2500     3860.2500        1.0000
   17175.50263    55511.0000    16992.2500     3865.2500        1.0000
   17175.99926    55536.0000    17035.2500     3872.2500        1.0000
   17176.50289    55538.0000    17061.2500     3877.2500        1.0000
   17176.99953    55572.0000    17111.2500     3888.2500        1.0000
   17177.50317    55557.0000    17155.2500     3896.2500        1.0000
   17177.99981    55542.0000    17187.2500     3903.2500        1.0000
   17178.50345    55545.0000    17219.2500     3909.2500        1.0000
   17179.00010    55540.0000    17249.2500     3916.2500        1.0000
   17179.49675    55581.0000    17299.2500     3926.2500        1.0000
   17180.00040    55564.0000    17327.2500     3932.2500        1.0000
   17180.49705    55579.0000    17365.2500     3939.2500        1.0000
   17181.00070    55567.0000    17388.2500     3942.2500        1.0000
   17181.49736    55552.0000    17414.2500     3948.2500        1.0000
   17182.00102    55576.0000    17446.2500     3954.2500        1.0000
   17182.49769    55546.0000    17458.2500     3954.2500        1.0000
   17183.00135    55593.0000    17501.2500     3964.2500        1.0000
   17183.49802    55593.0000    17519.2500     3965.2500        1.0000
   17184.00168    55583.0000    17532.2500     3970.2500        1.0000
   17184.49835    55586.0000    17560.2500     3973.2500        1.0000
   17185.00203    55578.0000    17580.2500     3979.2500        1.0000
   17185.49870    55586.0000    17602.2500     3982.2500        1.0000
   17186.00238    55592.0000    17623.2500     3987.2500        1.0000
   17186.49906    55600.0000    17646.2500     3992.2500        1.0000
   17187.00274    55598.0000    17664.2500     3997.2500        1.0000
   17187.49943    55587.0000    17677.2500     4000.2500        1.0000
   17188.00311    55578.0000    17691.2500     4001.2500        1.0000
   17188.49980    55583.0000    17713.2500     4008.2500        1.0000
   17189.00349    55596.0000    17728.2500     4010.2500        1.0000
   17189.50019    55584.0000    17737.2500     4016.2500        1.0000
   17189.99689    55617.0000    17759.2500     4021.2500        1.0000
   17190.50058    55611.0000    17768.2500     4024.2500        1.0000
   17190.99729    55623.0000    17781.2500     4026.2500        1.0000
   17191.50099    55611.0000    17785.2500     4030.2500        1.0000
   17191.99769    55594.0000    17789.2500     4033.2500        1.0000
   17192.50140    55605.0000    17803.2500     4037.2500        1.0000
   17192.99811    55589.0000    17803.2500     4040.2500        1.0000
   17193.50182    55602.0000    17813.2500     4043.2500        1.0000
   17193.99854    55601.0000    17820.2500     4048.2500        1.0000
   17194.50225    55613.0000    17832.2500     4053.2500        1.0000
   17194.99897    55614.0000    17837.2500     4059.2500        1.0000
   17195.50269    55630.0000    17852.2500     4063.2500        1.0000
   17195.99942    55618.0000    17850.2500     4067.2500        1.0000
   17196.50314    55605.0000    17856.2500     4070.2500        1.0000
   17196.99987    55639.0000    17870.2500     4079.2500        1.0000
   17197.49660    55604.0000    17866.2500     4080.2500        1.0000
   17198.00033    55594.0000    17870.2500     4084.2500        1.0000
   17198.49707    55600.0000    17880.2500     4089.2500        1.0000
   17199.00081    55599.0000    17883.2500     4095.2500        1.0000
   17199.49755    55617.0000    17895.2500     4100.2500        1.0000
   17200.00129    55589.0000    17897.2500     4104.2500        1.0000
   17200.49803    55605.0000    17900.2500     4110.2500        1.0000
   17201.00178    55601.0000    17905.2500     4116.2500        1.0000
   17201.49853    55597.0000    17909.2500     4122.2500        1.0000
   17202.00228    55609.0000    17920.2500     4131.2500        1.0000
   17202.49903    55605.0000    17920.2500     4134.2500        1.0000
   17203.00279    55628.0000    17932.2500     4141.2500        1.0000
   17203.49955    55601.0000    17923.2500     4144.2500        1.0000
   17204.00330    55633.0000    17937.2500     4152.2500        1.0000
   17204.50007    55618.0000    17936.2500     4156.2500        1.0000
   17204.99684    55629.0000    17939.2500     4159.2500        1.0000
   17205.50060    55636.0000    17947.2500     4165.2500        1.0000
   17205.99737    55631.0000    17947.2500     4169.2500        1.0000
   17206.50114    55620.0000    17946.2500     4172.2500        1.0000
   17206.99792    55646.0000    17953.2500     4178.2500        1.0000
   17207.50169    55634.0000    17953.2500     4179.2500        1.0000
   17207.99847    55619.0000    17944.2500     4182.2500        1.0000
   17208.50225    55641.0000    17953.2500     4185.2500        1.0000
   17208.99904    55645.0000    17954.2500     4188.2500        1.0000
   17209.50282    55635.0000    17948.2500     4190.2500        1.0000
   17209.99961    55653.0000    17954.2500     4194.2500        1.0000
   17210.50340    55669.0000    17954.2500     4195.2500        1.0000
   17211.00019    55651.0000    17949.2500     4194.2500        1.0000
   17211.49699    55652.0000    17943.2500     4196.2500        1.0000
   17212.00078    55693.0000    17954.2500     4199.2500        1.0000
   17212.49758    55668.0000    17940.2500     4198.2500        1.0000
   17213.00138    55673.0000    17939.2500     4197.2500        1.0000
   17213.49819    55683.0000    17938.2500     4198.2500        1.0000
   17214.00199    55676.0000    17932.2500     4199.2500        1.0000
   17214.49880    55684.0000    17930.2500     4198.2500        1.0000
   17215.00261    55674.0000    17921.2500     4198.2500        1.0000
   17215.49942    55702.0000    17929.2500     4200.2500        1.0000
   17216.00324    55679.0000    17918.2500     4197.2500        1.0000
   17216.50006    55654.0000    17906.2500     4194.2500        1.0000
   17216.99688    55666.0000    17907.2500     4195.2500        1.0000
   17217.50070    55682.0000    17905.2500     4195.2500        1.0000
   17217.99752    55662.0000    17900.2500     4191.2500        1.0000
   17218.50135    55674.0000    17895.2500     4192.2500        1.0000
   17218.99818    55688.0000    17900.2500     4193.2500        1.0000
   17219.50201    55667.0000    17892.2500     4187.2500        1.0000
   17219.99884    55676.0000    17892.2500     4186.2500        1.0000
   17220.50268    55662.0000    17886.2500     4183.2500        1.0000
   17220.99951    55681.0000    17890.2500     4183.2500        1.0000
   17221.50335    55668.0000    17886.2500     4180.2500        1.0000
   17222.00020    55661.0000    17881.2500     4175.2500        1.0000
   17222.49704    55671.0000    17884.2500     4174.2500        1.0000
   17223.00089    55660.0000    17878.2500     4170.2500        1.0000
   17223.49774    55664.0000    17879.2500     4168.2500        1.0000
   17224.00159    55693.0000    17893.2500     4167.2500        1.0000
   17224.49844    55682.0000    17890.2500     4165.2500        1.0000
   17225.00230    55682.0000    17891.2500     4163.2500        1.0000
   17225.49916    55659.0000    17884.2500     4159.2500        1.0000
   17226.00302    55661.0000    17882.2500     4156.2500        1.0000
   17226.49988    55656.0000    17882.2500     4155.2500        1.0000
   17226.99675    55657.0000    17889.2500     4151.2500        1.0000
   17227.50061    55686.0000    17894.2500     4152.2500        1.0000
   17227.99749    55664.0000    17889.2500     4149.2500        1.0000
   17228.50136    55659.0000    17890.2500     4147.2500        1.0000
   17228.99823    55664.0000    17895.2500     4147.2500        1.0000
   17229.50211    55661.0000    17895.2500     4143.2500        1.0000
   17229.99899    55668.0000    17897.2500     4141.2500        1.0000
   17230.50287    55663.0000    17898.2500     4140.2500        1.0000
   17230.99975    55686.0000    17912.2500     4141.2500        1.0000
   17231.49664    55662.0000    17904.2500     4137.2500        1.0000
   17232.00053    55644.0000    17900.2500     4135.2500        1.0000
   17232.49742    55629.0000    17897.2500     4134.2500        1.0000
   17233.00131    55623.0000    17899.2500     4131.2500        1.0000
   17233.49820    55650.0000    17911.2500     4133.2500        1.0000
   17234.00210    55639.0000    17915.2500     4132.2500        1.0000
   17234.49900    55641.0000    17920.2500     4131.2500        1.0000
   17235.00290    55650.0000    17928.2500     4131.2500        1.0000
   17235.49981    55624.0000    17924.2500     4128.2500        1.0000
   17235.99671    55650.0000    17939.2500     4131.2500        1.0000
   17236.50062    55641.0000    17942.2500     4128.2500        1.0000
   17236.99753    55630.0000    17943.2500     4128.2500        1.0000
   17237.50144    55631.0000    17948.2500     4129.2500        1.0000
   17237.99836    55644.0000    17958.2500     4130.2500        1.0000
   17238.50228    55638.0000    17960.2500     4130.2500        1.0000
   17238.99920    55649.0000    17968.2500     4130.2500        1.0000
   17239.50312    55618.0000    17965.2500     4130.2500        1.0000
   17240.00004    55629.0000    17977.2500     4133.2500        1.0000
   17240.49697    55648.0000    17984.2500     4134.2500        1.0000
   17241.00090    55625.0000    17985.2500     4135.2500        1.0000
   17241.49783    55636.0000    17990.2500     4137.2500        1.0000
   17242.00176    55614.0000    17991.2500     4138.2500        1.0000
   17242.49870    55621.0000    18000.2500     4139.2500        1.0000
   17243.00264    55595.0000    17992.2500     4138.2500        1.0000
   17243.49958    55596.0000    17999.2500     4140.2500        1.0000
   17243.99652    55594.0000    18004.2500     4142.2500        1.0000
   17244.50046    55578.0000    18001.2500     4144.2500        1.0000
   17244.99741    55593.0000    18015.2500     4148.2500        1.0000
   17245.50136    55569.0000    18010.2500     4147.2500        1.0000
   17245.99831    55563.0000    18013.2500     4150.2500        1.0000
   17246.50227    55557.0000    18016.2500     4151.2500        1.0000
   17246.99922    55552.0000    18020.2500     4156.2500        1.0000
   17247.50318    55560.0000    18024.2500     4157.2500        1.0000
   17248.00014    55530.0000    18023.2500     4159.2500        1.0000
   17248.49711    55538.0000    18028.2500     4163.2500        1.0000
   17249.00107    55532.0000    18029.2500     4168.2500        1.0000
   17249.49804    55506.0000    18026.2500     4168.2500        1.0000
   17250.00201    55483.0000    18022.2500     4169.2500        1.0000
   17250.49898    55479.0000    18024.2500     4171.2500        1.0000
   17251.00295    55481.0000    18026.2500     4175.2500        1.0000
   17251.49993    55462.0000    18024.2500     4177.2500        1.0000
   17251.99691    55450.0000    18024.2500     4180.2500        1.0000
   17252.50089    55457.0000    18032.2500     4182.2500        1.0000
   17252.99787    55455.0000    18038.2500     4187.2500        1.0000
   17253.50186    55428.0000    18029.2500     4187.2500        1.0000
   17253.99885    55432.0000    18034.2500     4191.2500        1.0000
   17254.50284    55419.0000    18031.2500     4193.2500        1.0000
   17254.99983    55398.0000    18032.2500     4196.2500        1.0000
   17255.49683    55398.0000    18029.2500     4197.2500        1.0000
   17256.00082    55390.0000    18035.2500     4201.2500        1.0000
   17256.49782    55410.0000    18042.2500     4206.2500        1.0000
   17257.00182    55382.0000    18035.2500     4206.2500        1.0000
   17257.49883    55377.0000    18038.2500     4207.2500        1.0000
   17258.00283    55360.0000    18037.2500     4208.2500        1.0000
   17258.49984    55342.0000    18034.2500     4211.2500        1.0000
   17258.99685    55337.0000    18033.2500     4212.2500        1.0000
   17259.50086    55330.0000    18033.2500     4213.2500        1.0000
   17259.99788    55299.0000    18025.2500     4214.2500        1.0000
   17260.50190    55303.0000    18029.2500     4216.2500        1.0000
   17260.99892    55303.0000    18033.2500     4218.2500        1.0000
   17261.50294    55292.0000    18032.2500     4220.2500        1.0000
   17261.99996    55288.0000    18031.2500     4222.2500        1.0000
   17262.49699    55286.0000    18031.2500     4224.2500        1.0000
   17263.00102    55270.0000    18031.2500     4223.2500        1.0000
   17263.49805    55283.0000    18037.2500     4226.2500        1.0000
   17264.00208    55245.0000    18027.2500     4224.2500        1.0000
   17264.49912    55251.0000    18031.2500     4226.2500        1.0000
   17265.00316    55246.0000    18034.2500     4228.2500        1.0000
   17265.50020    55244.0000    18031.2500     4228.2500        1.0000
   17265.99724    55230.0000    18033.2500     4227.2500        1.0000
   17266.50128    55239.0000    18035.2500     4229.2500        1.0000
   17266.99833    55201.0000    18023.2500     4226.2500        1.0000
   17267.50238    55220.0000    18032.2500     4229.2500        1.0000
   17267.99943    55202.0000    18027.2500     4228.2500        1.0000
   17268.50348    55192.0000    18025.2500     4228.2500        1.0000
   17269.00054    55182.0000    18025.2500     4229.2500        1.0000
   17269.49760    55171.0000    18021.2500     4227.2500        1.0000
   17270.00166    55158.0000    18019.2500     4226.2500        1.0000
   17270.49872    55181.0000    18032.2500     4229.2500        1.0000
   17271.00279    55135.0000    18016.2500     4225.2500        1.0000
   17271.49985    55154.0000    18022.2500     4225.2500        1.0000
   17271.99692    55147.0000    18021.2500     4225.2500        1.0000
   17272.50099    55155.0000    18025.2500     4225.2500        1.0000
   17272.99807    55156.0000    18024.2500     4226.2500        1.0000
   17273.50214    55136.0000    18017.2500     4224.2500        1.0000
   17273.99922    55105.0000    18007.2500     4222.2500        1.0000
   17274.50330    55097.0000    18005.2500     4221.2500        1.0000
   17275.00039    55079.0000    18000.2500     4220.2500        1.0000
   17275.49747    55077.0000    18001.2500     4219.2500        1.0000
   17276.00156    55068.0000    18001.2500     4218.2500        1.0000
   17276.49865    55078.0000    18003.2500     4218.2500        1.0000
   17277.00274    55085.0000    18006.2500     4221.2500        1.0000
   17277.49983    55073.0000    18006.2500     4218.2500        1.0000
   17277.99693    55052.0000    18000.2500     4218.2500        1.0000
   17278.50103    55052.0000    18000.2500     4217.2500        1.0000
   17278.99813    55064.0000    18006.2500     4217.2500        1.0000
   17279.50223    55058.0000    18007.2500     4216.2500        1.0000
   17279.99934    55062.0000    18010.2500     4217.2500        1.0000
   17280.50345    55045.0000    18005.2500     4214.2500        1.0000
   17281.00056    55012.0000    17996.2500     4213.2500        1.0000
   17281.49767    55041.0000    18007.2500     4215.2500        1.0000
   17282.00178    54997.0000    17994.2500     4213.2500        1.0000
   17282.49890    55014.0000    18002.2500     4214.2500        1.0000
   17283.00302    54992.0000    17994.2500     4213.2500        1.0000
   17283.50014    54975.0000    17994.2500     4210.2500        1.0000
   17283.99726    54993.0000    17998.2500     4214.2500        1.0000
   17284.50139    54966.0000    17992.2500     4212.2500        1.0000
   17284.99852    54967.0000    17997.2500     4212.2500        1.0000
   17285.50265    54949.0000    17994.2500     4211.2500        1.0000
   17285.99978    54911.0000    17982.2500     4208.2500        1.0000
   17286.49691    54913.0000    17983.2500     4210.2500        1.0000
   17287.00105    54909.0000    17985.2500     4210.2500        1.0000
   17287.49819    54906.0000    17985.2500     4210.2500        1.0000
   17288.00233    54877.0000    17978.2500     4208.2500        1.0000
   17288.49948    54899.0000    17988.2500     4209.2500        1.0000
   17288.99662    54902.0000    17986.2500     4210.2500        1.0000
   17289.50077    54863.0000    17975.2500     4207.2500        1.0000
   17289.99792    54843.0000    17972.2500     4207.2500        1.0000
   17290.50208    54853.0000    17977.2500     4207.2500        1.0000
   17290.99923    54829.0000    17968.2500     4207.2500        1.0000
   17291.50339    54853.0000    17981.2500     4207.2500        1.0000
   17292.00055    54821.0000    17971.2500     4205.2500        1.0000
   17292.49771    54810.0000    17968.2500     4205.2500        1.0000
   17293.00187    54811.0000    17968.2500     4207.2500        1.0000
   17293.49904    54813.0000    17971.2500     4206.2500        1.0000
   17294.00321    54807.0000    17970.2500     4207.2500        1.0000
   17294.50038    54808.0000    17972.2500     4206.2500        1.0000
   17294.99755    54797.0000    17971.2500     4208.2500        1.0000
   17295.50173    54808.0000    17975.2500     4209.2500        1.0000
   17295.99890    54767.0000    17961.2500     4208.2500        1.0000
   17296.50309    54778.0000    17971.2500     4211.2500        1.0000
   17297.00027    54767.0000    17965.2500     4211.2500        1.0000
   17297.49745    54770.0000    17967.2500     4211.2500        1.0000
   17298.00164    54770.0000    17969.2500     4212.2500        1.0000
   17298.49883    54737.0000    17957.2500     4210.2500        1.0000
   17299.00302    54749.0000    17960.2500     4213.2500        1.0000
   17299.50021    54740.0000    17960.2500     4216.2500        1.0000
   17299.99741    54728.0000    17957.2500     4214.2500        1.0000
   17300.50161    54716.0000    17958.2500     4216.2500        1.0000
   17303.27474   108352.0000    35572.5402     8364.2812        1.9810
   17305.57174   109031.0000    35804.6643     8431.7812        1.9970
   17307.88979   109648.0000    36020.7335     8496.1875        2.0140
   17310.22190   110294.0000    36240.8575     8556.6875        2.0300
   17312.57506   111202.0000    36563.9267     8650.0937        2.0470
   17314.94929   112013.0000    36864.0508     8741.5937        2.0630
   17317.34458   112902.0000    37190.1200     8833.0000        2.0800
   17319.75393   113767.0000    37506.2440     8920.5000        2.0960
   17322.18434   114643.0000    37827.3132     9013.9062        2.1130
   17324.62882   115397.0000    38113.4373     9097.4062        2.1290
   17327.10136   116240.0000    38425.5065     9186.8125        2.1460
   17329.58797   116984.0000    38698.6305     9258.3125        2.1620
   17332.09565   117861.0000    39017.6997     9334.7187        2.1790
   17334.61740   118664.0000    39306.8238     9403.2187        2.1950
   17337.16022   119498.0000    39606.8930     9472.6250        2.2120
   17339.72411   120297.0000    39897.0170     9537.1250        2.2280
   17342.30908   121084.0000    40179.0863     9600.5312        2.2450
   17344.90811   122005.0000    40514.2102     9672.0312        2.2610
   17347.52823   122909.0000    40835.2795     9743.4375        2.2780
   17350.16942   123734.0000    41142.4035     9807.9375        2.2940
   17352.82469   124695.0000    41495.4728     9892.3437        2.3110
   17355.50804   125596.0000    41823.5967     9967.8437        2.3270
   17358.19847   126488.0000    42151.6660    10056.2500        2.3440
   17360.91699   127337.0000    42472.7900    10141.7500        2.3600
   17363.64958   128204.0000    42796.8593    10230.1562        2.3770
   17366.40327   128996.0000    43088.9832    10313.6562        2.3930
   17369.17804   129851.0000    43400.0525    10399.0625        2.4100
   17371.96689   130589.0000    43676.1765    10476.5625        2.4260
   17374.78385   131366.0000    43962.2458    10555.9687        2.4430
   17377.60788   132297.0000    44296.3697    10646.4687        2.4590
   17380.46001   133218.0000    44630.4390    10731.8750        2.4760
   17383.32624   134026.0000    44925.5630    10807.3750        2.4920
   17386.21355   134927.0000    45252.6323    10890.7812        2.5090
   17389.12197   135624.0000    45510.7562    10955.2812        2.5250
   17392.04448   136622.0000    45870.8255    11049.6875        2.5420
   17394.98809   137487.0000    46184.9495    11137.1875        2.5580
   17397.95281   138395.0000    46523.0188    11235.5937        2.5750
   17400.93863   139293.0000    46850.1427    11335.0937        2.5910
   17403.93854   140215.0000    47195.2120    11432.5000        2.6080
   17406.95957   141033.0000    47507.3360    11519.0000        2.6240
   17409.99469   141951.0000    47859.4053    11614.4062        2.6410
