XDAC V1.4 Datafile V1
"CT_I_0-8m.005" created on 4/21/09 at 9:32:29 PM on X-23A2
Diffraction element= Si (311).  Ring energy= 2.80 GeV
E0= 4966.00
NUM_REGIONS= 3
SRB= -30 -20 30 14k
SRSS= 1 0.3 0.05k
SPP= 1 1 0.5k
Settling time= 0.10


Offsets= 121.25 50.00 0.00 0.00 0.00 0.00 1.00 1.00 2.00 1.25 1.25 1.00 1.25 1.25 0.00
Gains= 9.00 10.00 8.00 8.00 8.00 8.00 8.00 8.00 8.00 8.00 10.00 9.00 9.00 9.00 1.00
CaTiO3 - irradiated sample. 0.8 micron depth. Angle = 3.3.


--------------------------------------------------------------------------------
        Energy            I0            It           If1           If2           If3           If4        Islow1        Islow2        Islow3        Islow4        Ifast1        Ifast2        Ifast3        Ifast4       IntTime
    4935.99952     3811.7500        7.0000       34.0000      150.0000      131.0000       66.0000     4711.0000    16105.0000    15041.0000     4999.7500     4701.7500    16212.0000    15061.7500     5002.7500        1.0000
    4937.00068     3824.7500        8.0000       29.0000      135.0000      114.0000       71.0000     4659.0000    15751.0000    15045.0000     4971.7500     4647.7500    15829.0000    15066.7500     4987.7500        1.0000
    4938.00067     3833.7500        7.0000       31.0000      134.0000      121.0000       58.0000     4663.0000    15784.0000    15015.0000     5130.7500     4653.7500    15862.0000    15043.7500     5122.7500        1.0000
    4938.99948     3846.7500        7.0000       28.0000      127.0000      132.0000       75.0000     4606.0000    15892.0000    15238.0000     5266.7500     4588.7500    15967.0000    15246.7500     5278.7500        1.0000
    4939.99914     3861.7500        7.0000       34.0000      164.0000      134.0000       84.0000     4836.0000    16151.0000    15067.0000     5285.7500     4834.7500    16202.0000    15095.7500     5298.7500        1.0000
    4940.99966     3872.7500        6.0000       40.0000      135.0000      124.0000       89.0000     4765.0000    16047.0000    15271.0000     5336.7500     4760.7500    16136.0000    15275.7500     5340.7500        1.0000
    4941.99899     3888.7500        7.0000       43.0000      150.0000      131.0000       71.0000     4835.0000    16230.0000    15441.0000     5331.7500     4822.7500    16292.0000    15477.7500     5335.7500        1.0000
    4942.99917     3900.7500        8.0000       25.0000      144.0000      137.0000       66.0000     4846.0000    16096.0000    15660.0000     5240.7500     4841.7500    16163.0000    15707.7500     5243.7500        1.0000
    4944.00021     3910.7500        8.0000       34.0000      190.0000      131.0000       71.0000     4844.0000    16418.0000    15562.0000     5219.7500     4825.7500    16494.0000    15598.7500     5230.7500        1.0000
    4945.00006     3919.7500        6.0000       35.0000      191.0000      137.0000       81.0000     4903.0000    16362.0000    15627.0000     5328.7500     4895.7500    16437.0000    15684.7500     5334.7500        1.0000
    4946.00075     3931.7500        8.0000       42.0000      153.0000      138.0000       77.0000     4813.0000    16084.0000    15580.0000     5327.7500     4805.7500    16164.0000    15617.7500     5334.7500        1.0000
    4946.30030     3937.7500        8.0000       35.0000      165.0000      125.0000       81.0000     4778.0000    16220.0000    15532.0000     5215.7500     4769.7500    16306.0000    15564.7500     5235.7500        1.0000
    4946.59993     3939.7500        8.0000       43.0000      183.0000      161.0000       78.0000     4827.0000    16431.0000    15856.0000     5428.7500     4818.7500    16477.0000    15885.7500     5438.7500        1.0000
    4946.89964     3942.7500        7.0000       46.0000      170.0000      147.0000       67.0000     4877.0000    16363.0000    15899.0000     5459.7500     4873.7500    16432.0000    15914.7500     5476.7500        1.0000
    4947.19942     3947.7500        8.0000       43.0000      183.0000      152.0000       66.0000     4794.0000    16423.0000    15633.0000     5451.7500     4787.7500    16495.0000    15668.7500     5456.7500        1.0000
    4947.49928     3949.7500        7.0000       24.0000      162.0000      164.0000       75.0000     4819.0000    16435.0000    15661.0000     5257.7500     4806.7500    16477.0000    15688.7500     5265.7500        1.0000
    4947.79922     3950.7500        8.0000       37.0000      185.0000      143.0000       91.0000     4866.0000    16449.0000    15844.0000     5452.7500     4858.7500    16525.0000    15862.7500     5464.7500        1.0000
    4948.09923     3954.7500        7.0000       46.0000      173.0000      144.0000       78.0000     4840.0000    16484.0000    15963.0000     5417.7500     4833.7500    16559.0000    15981.7500     5420.7500        1.0000
    4948.39932     3955.7500        8.0000       42.0000      210.0000      157.0000       68.0000     4790.0000    16265.0000    15850.0000     5440.7500     4777.7500    16338.0000    15858.7500     5447.7500        1.0000
    4948.69948     3960.7500        7.0000       39.0000      199.0000      145.0000       76.0000     4837.0000    16724.0000    15890.0000     5576.7500     4819.7500    16787.0000    15929.7500     5579.7500        1.0000
    4948.99972     3962.7500        7.0000       41.0000      176.0000      145.0000       78.0000     4804.0000    16506.0000    15891.0000     5495.7500     4791.7500    16588.0000    15932.7500     5510.7500        1.0000
    4949.30004     3965.7500        8.0000       53.0000      193.0000      136.0000       75.0000     4802.0000    16582.0000    16092.0000     5474.7500     4789.7500    16655.0000    16113.7500     5484.7500        1.0000
    4949.60043     3966.7500        8.0000       47.0000      174.0000      155.0000       98.0000     4846.0000    16634.0000    16069.0000     5394.7500     4840.7500    16711.0000    16086.7500     5403.7500        1.0000
    4949.90090     3970.7500        9.0000       41.0000      178.0000      155.0000       79.0000     5011.0000    16651.0000    16135.0000     5515.7500     5002.7500    16713.0000    16138.7500     5526.7500        1.0000
    4950.19939     3973.7500        8.0000       43.0000      159.0000      161.0000       83.0000     4874.0000    16379.0000    15908.0000     5560.7500     4872.7500    16455.0000    15932.7500     5551.7500        1.0000
    4950.50001     3974.7500        8.0000       42.0000      193.0000      148.0000       64.0000     4876.0000    16297.0000    16156.0000     5606.7500     4865.7500    16393.0000    16166.7500     5608.7500        1.0000
    4950.80071     3978.7500        7.0000       41.0000      190.0000      155.0000       67.0000     4911.0000    16406.0000    16022.0000     5491.7500     4899.7500    16489.0000    16058.7500     5499.7500        1.0000
    4951.09942     3981.7500        8.0000       36.0000      188.0000      158.0000       78.0000     4880.0000    16606.0000    16051.0000     5470.7500     4874.7500    16683.0000    16072.7500     5477.7500        1.0000
    4951.40027     3980.7500        7.0000       42.0000      206.0000      163.0000       92.0000     4810.0000    16631.0000    16140.0000     5439.7500     4800.7500    16693.0000    16160.7500     5449.7500        1.0000
    4951.69914     3985.7500        8.0000       33.0000      182.0000      189.0000       87.0000     4865.0000    16688.0000    15838.0000     5590.7500     4851.7500    16751.0000    15881.7500     5601.7500        1.0000
    4952.00014     3988.7500        8.0000       32.0000      206.0000      169.0000       82.0000     4947.0000    16586.0000    16270.0000     5529.7500     4937.7500    16664.0000    16309.7500     5534.7500        1.0000
    4952.29916     3990.7500        7.0000       37.0000      190.0000      157.0000       70.0000     4850.0000    16479.0000    16079.0000     5568.7500     4839.7500    16528.0000    16146.7500     5566.7500        1.0000
    4952.60031     3993.7500        8.0000       44.0000      192.0000      146.0000       85.0000     4879.0000    16395.0000    16038.0000     5436.7500     4870.7500    16463.0000    16073.7500     5439.7500        1.0000
    4952.89948     3996.7500        7.0000       45.0000      186.0000      179.0000       83.0000     4957.0000    16605.0000    16110.0000     5575.7500     4943.7500    16683.0000    16128.7500     5571.7500        1.0000
    4953.20079     4001.7500        8.0000       37.0000      178.0000      151.0000       70.0000     4900.0000    16667.0000    15919.0000     5545.7500     4888.7500    16722.0000    15948.7500     5555.7500        1.0000
    4953.50011     3999.7500        7.0000       52.0000      177.0000      159.0000       85.0000     4992.0000    16656.0000    16280.0000     5582.7500     4978.7500    16757.0000    16331.7500     5597.7500        1.0000
    4953.79951     4001.7500        8.0000       43.0000      188.0000      200.0000       81.0000     4865.0000    16637.0000    16227.0000     5654.7500     4858.7500    16718.0000    16261.7500     5672.7500        1.0000
    4954.09898     4006.7500        9.0000       48.0000      201.0000      173.0000       86.0000     5054.0000    16720.0000    16143.0000     5577.7500     5044.7500    16771.0000    16191.7500     5594.7500        1.0000
    4954.40059     4007.7500        8.0000       43.0000      214.0000      160.0000       88.0000     4884.0000    16501.0000    16137.0000     5591.7500     4872.7500    16580.0000    16170.7500     5596.7500        1.0000
    4954.70021     4011.7500        8.0000       51.0000      227.0000      181.0000       75.0000     5013.0000    16841.0000    16170.0000     5644.7500     5005.7500    16907.0000    16207.7500     5655.7500        1.0000
    4954.99991     4011.7500        8.0000       58.0000      207.0000      184.0000       91.0000     4970.0000    16522.0000    16223.0000     5529.7500     4963.7500    16610.0000    16250.7500     5535.7500        1.0000
    4955.29968     4014.7500        7.0000       58.0000      221.0000      162.0000       81.0000     4863.0000    16780.0000    16420.0000     5470.7500     4851.7500    16845.0000    16449.7500     5488.7500        1.0000
    4955.59953     4014.7500        9.0000       65.0000      212.0000      184.0000       71.0000     4927.0000    16783.0000    16209.0000     5600.7500     4922.7500    16861.0000    16258.7500     5608.7500        1.0000
    4955.89946     4020.7500        8.0000       45.0000      218.0000      212.0000       88.0000     4863.0000    16845.0000    16343.0000     5729.7500     4859.7500    16917.0000    16376.7500     5743.7500        1.0000
    4956.19946     4022.7500        9.0000       61.0000      220.0000      210.0000       96.0000     5026.0000    16824.0000    16197.0000     5453.7500     5009.7500    16896.0000    16217.7500     5460.7500        1.0000
    4956.49953     4024.7500        8.0000       48.0000      231.0000      199.0000       94.0000     4992.0000    16639.0000    16388.0000     5651.7500     4969.7500    16728.0000    16386.7500     5666.7500        1.0000
    4956.79968     4027.7500        8.0000       42.0000      219.0000      211.0000      100.0000     4888.0000    16791.0000    16425.0000     5746.7500     4876.7500    16858.0000    16460.7500     5759.7500        1.0000
    4957.09991     4029.7500        7.0000       53.0000      215.0000      206.0000      100.0000     5034.0000    16720.0000    16424.0000     5471.7500     5024.7500    16789.0000    16451.7500     5482.7500        1.0000
    4957.40021     4034.7500        9.0000       54.0000      239.0000      206.0000       88.0000     5099.0000    16928.0000    16375.0000     5547.7500     5082.7500    16999.0000    16390.7500     5545.7500        1.0000
    4957.70059     4036.7500        8.0000       50.0000      222.0000      223.0000       94.0000     4907.0000    16924.0000    16352.0000     5543.7500     4894.7500    16987.0000    16399.7500     5554.7500        1.0000
    4957.99897     4038.7500        8.0000       52.0000      249.0000      180.0000       98.0000     4819.0000    16876.0000    16428.0000     5637.7500     4808.7500    16938.0000    16476.7500     5652.7500        1.0000
    4958.29950     4039.7500        8.0000       54.0000      258.0000      232.0000       99.0000     5031.0000    16829.0000    16448.0000     5590.7500     5021.7500    16898.0000    16475.7500     5600.7500        1.0000
    4958.60011     4043.7500        8.0000       49.0000      245.0000      202.0000      116.0000     5012.0000    16767.0000    16526.0000     5565.7500     4996.7500    16826.0000    16568.7500     5569.7500        1.0000
    4958.90079     4046.7500        8.0000       59.0000      255.0000      196.0000       89.0000     4966.0000    16861.0000    16517.0000     5675.7500     4951.7500    16953.0000    16546.7500     5686.7500        1.0000
    4959.19947     4052.7500        8.0000       62.0000      272.0000      200.0000      108.0000     4913.0000    16825.0000    16536.0000     5778.7500     4894.7500    16908.0000    16561.7500     5781.7500        1.0000
    4959.50030     4054.7500        8.0000       64.0000      264.0000      194.0000      110.0000     4849.0000    17142.0000    16367.0000     5654.7500     4826.7500    17201.0000    16363.7500     5660.7500        1.0000
    4959.79913     4059.7500        9.0000       80.0000      250.0000      250.0000      116.0000     5114.0000    16828.0000    16573.0000     5800.7500     5101.7500    16883.0000    16605.7500     5801.7500        1.0000
    4960.10012     4061.7500        7.0000       62.0000      258.0000      227.0000      103.0000     5061.0000    17055.0000    16595.0000     5504.7500     5047.7500    17126.0000    16631.7500     5509.7500        1.0000
    4960.39910     4066.7500        8.0000       67.0000      277.0000      209.0000      106.0000     4896.0000    16969.0000    16422.0000     5667.7500     4885.7500    17017.0000    16454.7500     5680.7500        1.0000
    4960.70023     4067.7500       10.0000       63.0000      262.0000      230.0000      138.0000     4920.0000    17072.0000    16624.0000     5779.7500     4905.7500    17149.0000    16651.7500     5778.7500        1.0000
    4960.99936     4071.7500        8.0000       75.0000      274.0000      254.0000      110.0000     5070.0000    16997.0000    16716.0000     5806.7500     5053.7500    17067.0000    16734.7500     5824.7500        1.0000
    4961.30065     4074.7500        8.0000       81.0000      255.0000      220.0000      116.0000     5046.0000    16904.0000    16434.0000     5656.7500     5034.7500    16981.0000    16449.7500     5668.7500        1.0000
    4961.59993     4077.7500        8.0000       77.0000      311.0000      257.0000      114.0000     4994.0000    17461.0000    16643.0000     5723.7500     4987.7500    17547.0000    16679.7500     5729.7500        1.0000
    4961.89928     4077.7500        9.0000       79.0000      306.0000      265.0000      112.0000     4987.0000    17094.0000    16625.0000     5809.7500     4978.7500    17170.0000    16670.7500     5822.7500        1.0000
    4962.20079     4081.7500        8.0000       86.0000      303.0000      239.0000      105.0000     4983.0000    17092.0000    16474.0000     5705.7500     4967.7500    17160.0000    16493.7500     5712.7500        1.0000
    4962.50030     4086.7500        9.0000       77.0000      291.0000      311.0000      116.0000     5223.0000    16842.0000    16752.0000     5670.7500     5204.7500    16923.0000    16802.7500     5687.7500        1.0000
    4962.79988     4087.7500        8.0000       70.0000      340.0000      244.0000      140.0000     4886.0000    17023.0000    16546.0000     5725.7500     4874.7500    17096.0000    16582.7500     5738.7500        1.0000
    4963.09954     4088.7500        8.0000       91.0000      311.0000      275.0000      122.0000     5058.0000    17200.0000    16699.0000     5719.7500     5049.7500    17268.0000    16763.7500     5720.7500        1.0000
    4963.39927     4092.7500        8.0000       78.0000      362.0000      269.0000      136.0000     5096.0000    17382.0000    16782.0000     5821.7500     5091.7500    17487.0000    16834.7500     5833.7500        1.0000
    4963.69907     4094.7500        9.0000       93.0000      337.0000      308.0000      133.0000     5023.0000    17358.0000    16822.0000     5725.7500     5005.7500    17432.0000    16849.7500     5739.7500        1.0000
    4964.00104     4097.7500        8.0000       81.0000      344.0000      326.0000      138.0000     5131.0000    17236.0000    16893.0000     5767.7500     5123.7500    17315.0000    16932.7500     5772.7500        1.0000
    4964.30099     4102.7500        8.0000      104.0000      349.0000      344.0000      139.0000     5139.0000    17233.0000    16704.0000     5763.7500     5127.7500    17310.0000    16746.7500     5771.7500        1.0000
    4964.60102     4103.7500        8.0000      113.0000      337.0000      328.0000      138.0000     5096.0000    17141.0000    16901.0000     5799.7500     5081.7500    17201.0000    16940.7500     5795.7500        1.0000
    4964.89905     4106.7500        7.0000       99.0000      358.0000      358.0000      146.0000     5210.0000    17212.0000    17135.0000     5906.7500     5198.7500    17287.0000    17177.7500     5904.7500        1.0000
    4965.19923     4109.7500        8.0000       96.0000      341.0000      344.0000      142.0000     5178.0000    17359.0000    16908.0000     5860.7500     5160.7500    17442.0000    16941.7500     5871.7500        1.0000
    4965.49948     4111.7500        8.0000       97.0000      386.0000      361.0000      176.0000     5034.0000    17350.0000    16966.0000     5804.7500     5018.7500    17431.0000    16996.7500     5800.7500        1.0000
    4965.79981     4114.7500        9.0000      101.0000      385.0000      360.0000      155.0000     5107.0000    17308.0000    17008.0000     5753.7500     5086.7500    17405.0000    17073.7500     5757.7500        1.0000
    4966.10021     4117.7500        7.0000      103.0000      453.0000      435.0000      186.0000     5119.0000    17374.0000    17034.0000     5877.7500     5108.7500    17444.0000    17068.7500     5893.7500        1.0000
    4966.40069     4122.7500        9.0000      139.0000      432.0000      366.0000      157.0000     5121.0000    17408.0000    17032.0000     5803.7500     5105.7500    17484.0000    17103.7500     5820.7500        1.0000
    4966.69916     4122.7500        8.0000      104.0000      452.0000      427.0000      170.0000     5010.0000    17383.0000    16827.0000     5918.7500     5000.7500    17478.0000    16841.7500     5927.7500        1.0000
    4966.99979     4124.7500        8.0000      136.0000      485.0000      411.0000      175.0000     5150.0000    17635.0000    17011.0000     5842.7500     5135.7500    17720.0000    17069.7500     5838.7500        1.0000
    4967.30049     4128.7500        9.0000      128.0000      531.0000      496.0000      186.0000     5087.0000    17684.0000    17039.0000     5825.7500     5070.7500    17767.0000    17078.7500     5811.7500        1.0000
    4967.59918     4132.7500        8.0000      137.0000      573.0000      550.0000      225.0000     5291.0000    17854.0000    17129.0000     5853.7500     5276.7500    17948.0000    17148.7500     5859.7500        1.0000
    4967.90004     4133.7500        9.0000      194.0000      616.0000      544.0000      228.0000     5304.0000    17728.0000    17213.0000     5952.7500     5293.7500    17806.0000    17256.7500     5961.7500        1.0000
    4968.20097     4134.7500        9.0000      182.0000      687.0000      587.0000      250.0000     5264.0000    17655.0000    17077.0000     5920.7500     5252.7500    17712.0000    17119.7500     5931.7500        1.0000
    4968.49988     4140.7500        9.0000      216.0000      776.0000      716.0000      266.0000     5276.0000    17704.0000    17462.0000     5992.7500     5255.7500    17794.0000    17488.7500     5998.7500        1.0000
    4968.80096     4143.7500        8.0000      269.0000     1011.0000     1015.0000      414.0000     5391.0000    17822.0000    17503.0000     6017.7500     5379.7500    17936.0000    17557.7500     6020.7500        1.0000
    4969.10002     4146.7500        9.0000      404.0000     1403.0000     1260.0000      483.0000     5355.0000    18040.0000    17628.0000     6080.7500     5346.7500    18141.0000    17667.7500     6104.7500        1.0000
    4969.39915     4146.7500        9.0000      535.0000     1779.0000     1696.0000      686.0000     5570.0000    18722.0000    17996.0000     6286.7500     5567.7500    18801.0000    18048.7500     6289.7500        1.0000
    4969.70045     4149.7500        9.0000      572.0000     2017.0000     1925.0000      723.0000     5495.0000    18562.0000    18152.0000     6323.7500     5495.7500    18664.0000    18213.7500     6336.7500        1.0000
    4969.99974     4150.7500        8.0000      612.0000     2128.0000     2126.0000      806.0000     5602.0000    18583.0000    18335.0000     6282.7500     5595.7500    18681.0000    18392.7500     6302.7500        1.0000
    4970.29910     4151.7500        9.0000      731.0000     2390.0000     2250.0000      864.0000     5513.0000    18774.0000    18534.0000     6342.7500     5500.7500    18871.0000    18595.7500     6357.7500        1.0000
    4970.60062     4155.7500        9.0000      922.0000     3052.0000     3034.0000     1093.0000     5749.0000    19479.0000    19064.0000     6380.7500     5731.7500    19595.0000    19147.7500     6394.7500        1.0000
    4970.90013     4159.7500        7.0000     1142.0000     3844.0000     3741.0000     1302.0000     5976.0000    20142.0000    19348.0000     6699.7500     5961.7500    20236.0000    19388.7500     6719.7500        1.0000
    4971.19971     4158.7500        8.0000     1342.0000     4413.0000     4193.0000     1545.0000     6154.0000    20308.0000    19972.0000     6690.7500     6142.7500    20437.0000    20045.7500     6713.7500        1.0000
    4971.49936     4162.7500        8.0000     1431.0000     4691.0000     4483.0000     1687.0000     6158.0000    20719.0000    20212.0000     6950.7500     6145.7500    20849.0000    20298.7500     6976.7500        1.0000
    4971.79909     4165.7500        9.0000     1351.0000     4537.0000     4379.0000     1602.0000     6143.0000    20679.0000    20029.0000     7015.7500     6134.7500    20826.0000    20129.7500     7047.7500        1.0000
    4972.10099     4163.7500        7.0000     1167.0000     3883.0000     3796.0000     1439.0000     6029.0000    19923.0000    19743.0000     6875.7500     6018.7500    20028.0000    19822.7500     6897.7500        1.0000
    4972.40087     4168.7500        8.0000      996.0000     3416.0000     3328.0000     1205.0000     5843.0000    19771.0000    19310.0000     6616.7500     5826.7500    19900.0000    19372.7500     6631.7500        1.0000
    4972.70082     4170.7500        8.0000      967.0000     3213.0000     3172.0000     1039.0000     5870.0000    19744.0000    18953.0000     6515.7500     5864.7500    19848.0000    19054.7500     6536.7500        1.0000
    4973.00085     4170.7500        8.0000      927.0000     2966.0000     2820.0000     1020.0000     5876.0000    19470.0000    18973.0000     6484.7500     5863.7500    19569.0000    19027.7500     6501.7500        1.0000
    4973.30094     4169.7500        8.0000      844.0000     2734.0000     2700.0000      945.0000     5725.0000    19311.0000    18735.0000     6495.7500     5701.7500    19423.0000    18794.7500     6513.7500        1.0000
    4973.59902     4172.7500        8.0000      787.0000     2736.0000     2595.0000      969.0000     5740.0000    19358.0000    18859.0000     6440.7500     5730.7500    19458.0000    18935.7500     6451.7500        1.0000
    4973.89927     4171.7500        9.0000      855.0000     2842.0000     2641.0000      996.0000     5724.0000    19599.0000    18908.0000     6444.7500     5719.7500    19703.0000    18964.7500     6463.7500        1.0000
    4974.19959     4169.7500        8.0000      937.0000     3003.0000     2958.0000     1007.0000     5894.0000    19625.0000    19080.0000     6454.7500     5893.7500    19734.0000    19138.7500     6466.7500        1.0000
    4974.49998     4170.7500        8.0000     1036.0000     3347.0000     3156.0000     1139.0000     5992.0000    19761.0000    19194.0000     6417.7500     5998.7500    19860.0000    19288.7500     6436.7500        1.0000
    4974.80045     4169.7500       10.0000     1117.0000     3732.0000     3491.0000     1285.0000     5953.0000    19887.0000    19452.0000     6695.7500     5940.7500    20015.0000    19504.7500     6712.7500        1.0000
    4975.10100     4164.7500        8.0000     1247.0000     3988.0000     3747.0000     1456.0000     6129.0000    20137.0000    19445.0000     6825.7500     6124.7500    20257.0000    19505.7500     6845.7500        1.0000
    4975.39951     4161.7500       10.0000     1231.0000     3995.0000     3799.0000     1465.0000     5953.0000    20161.0000    19611.0000     6927.7500     5939.7500    20282.0000    19678.7500     6940.7500        1.0000
    4975.70021     4153.7500        9.0000     1223.0000     4182.0000     3999.0000     1469.0000     5975.0000    20444.0000    19645.0000     6748.7500     5973.7500    20565.0000    19728.7500     6754.7500        1.0000
    4976.00097     4148.7500        9.0000     1315.0000     4190.0000     3886.0000     1509.0000     5956.0000    20153.0000    19587.0000     6735.7500     5944.7500    20297.0000    19692.7500     6746.7500        1.0000
    4976.29971     4136.7500        9.0000     1299.0000     4099.0000     4101.0000     1590.0000     6018.0000    20252.0000    19650.0000     6979.7500     6005.7500    20358.0000    19720.7500     6999.7500        1.0000
    4976.60062     4115.7500        9.0000     1365.0000     4362.0000     4101.0000     1553.0000     6089.0000    20251.0000    19576.0000     6970.7500     6074.7500    20368.0000    19658.7500     6980.7500        1.0000
    4976.89951     4083.7500        9.0000     1453.0000     4522.0000     4312.0000     1635.0000     6039.0000    20327.0000    19517.0000     6787.7500     6036.7500    20445.0000    19577.7500     6803.7500        1.0000
    4977.20057     4025.7500        7.0000     1377.0000     4445.0000     4475.0000     1665.0000     5905.0000    19944.0000    19741.0000     6741.7500     5891.7500    20036.0000    19823.7500     6752.7500        1.0000
    4977.49960     3895.7500        8.0000     1347.0000     4387.0000     4295.0000     1621.0000     5846.0000    19184.0000    19158.0000     6609.7500     5832.7500    19325.0000    19216.7500     6627.7500        1.0000
    4977.80081     2383.7500        6.0000      796.0000     2668.0000     2689.0000     1007.0000     3451.0000    11352.0000    11934.0000     4177.7500     3440.7500    11378.0000    11961.7500     4173.7500        1.0000
    4978.09999     3000.7500        5.0000     1044.0000     3429.0000     3344.0000     1308.0000     4540.0000    14948.0000    14656.0000     5130.7500     4524.7500    14997.0000    14660.7500     5137.7500        1.0000
    4978.39924     4516.7500        8.0000     1494.0000     5332.0000     5026.0000     1892.0000     6568.0000    22651.0000    21977.0000     7698.7500     6551.7500    22816.0000    22095.7500     7716.7500        1.0000
    4978.70067     4493.7500        9.0000     1551.0000     5351.0000     5168.0000     2032.0000     6594.0000    22501.0000    21991.0000     7737.7500     6591.7500    22656.0000    22125.7500     7779.7500        1.0000
    4979.00007     4446.7500        8.0000     1582.0000     5430.0000     5268.0000     1855.0000     6639.0000    22343.0000    22101.0000     7395.7500     6625.7500    22533.0000    22205.7500     7422.7500        1.0000
    4979.29954     4414.7500        9.0000     1676.0000     5605.0000     5405.0000     1927.0000     6634.0000    22512.0000    21619.0000     7429.7500     6626.7500    22647.0000    21721.7500     7438.7500        1.0000
    4979.59909     4392.7500        9.0000     1788.0000     5842.0000     5477.0000     2097.0000     6910.0000    22451.0000    21880.0000     7653.7500     6895.7500    22585.0000    22001.7500     7658.7500        1.0000
    4979.90082     4378.7500        8.0000     1865.0000     6127.0000     5998.0000     2156.0000     6771.0000    22390.0000    22145.0000     7579.7500     6763.7500    22549.0000    22265.7500     7595.7500        1.0000
    4980.20051     4369.7500        9.0000     1868.0000     6541.0000     6178.0000     2273.0000     6701.0000    23097.0000    22202.0000     7684.7500     6700.7500    23245.0000    22314.7500     7706.7500        1.0000
    4980.50027     4365.7500        8.0000     2123.0000     6923.0000     6844.0000     2476.0000     6977.0000    22997.0000    22750.0000     7859.7500     6977.7500    23155.0000    22860.7500     7887.7500        1.0000
    4980.80011     4356.7500       10.0000     2207.0000     7452.0000     7376.0000     2553.0000     6928.0000    23389.0000    23194.0000     7813.7500     6918.7500    23561.0000    23342.7500     7854.7500        1.0000
    4981.10002     4354.7500        8.0000     2420.0000     8160.0000     7835.0000     3001.0000     7230.0000    24016.0000    23427.0000     8229.7500     7216.7500    24200.0000    23570.7500     8253.7500        1.0000
    4981.40001     4350.7500        8.0000     2537.0000     8566.0000     8102.0000     2945.0000     7226.0000    24467.0000    23588.0000     8155.7500     7222.7500    24655.0000    23717.7500     8186.7500        1.0000
    4981.70007     4350.7500        9.0000     2729.0000     9224.0000     9051.0000     3268.0000     7257.0000    24578.0000    24118.0000     8371.7500     7254.7500    24801.0000    24279.7500     8413.7500        1.0000
    4982.00020     4352.7500        9.0000     3007.0000     9958.0000     9635.0000     3385.0000     7636.0000    25054.0000    24626.0000     8435.7500     7634.7500    25257.0000    24743.7500     8462.7500        1.0000
    4982.30041     4349.7500        8.0000     3171.0000    10608.0000    10161.0000     3712.0000     7699.0000    25648.0000    25053.0000     8706.7500     7689.7500    25852.0000    25209.7500     8721.7500        1.0000
    4982.60068     4350.7500       10.0000     3276.0000    11234.0000    10843.0000     3997.0000     7724.0000    26032.0000    25531.0000     8858.7500     7708.7500    26253.0000    25693.7500     8882.7500        1.0000
    4982.90104     4350.7500        9.0000     3553.0000    11724.0000    11434.0000     4160.0000     8061.0000    26472.0000    25812.0000     8949.7500     8058.7500    26706.0000    25980.7500     8988.7500        1.0000
    4983.19935     4351.7500        9.0000     3797.0000    12620.0000    12153.0000     4387.0000     8218.0000    27076.0000    26518.0000     9172.7500     8224.7500    27324.0000    26666.7500     9209.7500        1.0000
    4983.49985     4351.7500        9.0000     4033.0000    13374.0000    12945.0000     4656.0000     8296.0000    27565.0000    26864.0000     9429.7500     8267.7500    27830.0000    27069.7500     9471.7500        1.0000
    4983.80042     4352.7500        9.0000     4099.0000    13966.0000    13508.0000     4798.0000     8406.0000    28155.0000    27439.0000     9543.7500     8404.7500    28426.0000    27642.7500     9587.7500        1.0000
    4984.09895     4356.7500        9.0000     4467.0000    15175.0000    14663.0000     5314.0000     8657.0000    28808.0000    28320.0000     9847.7500     8632.7500    29120.0000    28579.7500     9887.7500        1.0000
    4984.39967     4356.7500        9.0000     4759.0000    15765.0000    15540.0000     5318.0000     8908.0000    29270.0000    28698.0000     9703.7500     8912.7500    29607.0000    28869.7500     9739.7500        1.0000
    4984.70046     4361.7500        8.0000     4854.0000    16827.0000    16152.0000     5529.0000     8981.0000    30144.0000    29395.0000     9802.7500     8978.7500    30453.0000    29631.7500     9857.7500        1.0000
    4984.99920     4360.7500        9.0000     4968.0000    17374.0000    16424.0000     5932.0000     9040.0000    30852.0000    29413.0000    10276.7500     9040.7500    31215.0000    29622.7500    10305.7500        1.0000
    4985.30014     4365.7500        9.0000     5221.0000    18017.0000    17205.0000     6078.0000     9129.0000    31263.0000    30035.0000    10421.7500     9125.7500    31612.0000    30335.7500    10474.7500        1.0000
    4985.59904     4366.7500       10.0000     5454.0000    18464.0000    17778.0000     6330.0000     9390.0000    31526.0000    30807.0000    10560.7500     9394.7500    31871.0000    31079.7500    10619.7500        1.0000
    4985.90012     4368.7500        9.0000     5394.0000    18928.0000    18213.0000     6356.0000     9370.0000    31525.0000    30680.0000    10516.7500     9368.7500    31868.0000    30948.7500    10593.7500        1.0000
    4986.19916     4370.7500        9.0000     5427.0000    18848.0000    18138.0000     6362.0000     9420.0000    31719.0000    30677.0000    10463.7500     9431.7500    32114.0000    30975.7500    10518.7500        1.0000
    4986.50039     4373.7500        9.0000     5604.0000    18721.0000    18531.0000     6382.0000     9508.0000    31579.0000    31070.0000    10635.7500     9507.7500    31928.0000    31379.7500    10687.7500        1.0000
    4986.79958     4375.7500       10.0000     5384.0000    19049.0000    18201.0000     6495.0000     9387.0000    31786.0000    30802.0000    10678.7500     9379.7500    32132.0000    31092.7500    10735.7500        1.0000
    4987.10095     4375.7500        9.0000     5308.0000    18883.0000    18123.0000     6215.0000     9368.0000    31787.0000    30849.0000    10556.7500     9364.7500    32128.0000    31138.7500    10602.7500        1.0000
    4987.40028     4378.7500       10.0000     5481.0000    18731.0000    17983.0000     6295.0000     9442.0000    31806.0000    30650.0000    10469.7500     9443.7500    32207.0000    30947.7500    10531.7500        1.0000
    4987.69968     4380.7500        9.0000     5207.0000    18350.0000    17590.0000     6257.0000     9254.0000    31533.0000    30334.0000    10617.7500     9259.7500    31917.0000    30574.7500    10666.7500        1.0000
    4987.99916     4384.7500        9.0000     5401.0000    18110.0000    17479.0000     6175.0000     9479.0000    31252.0000    30361.0000    10475.7500     9484.7500    31588.0000    30626.7500    10527.7500        1.0000
    4988.30083     4386.7500        9.0000     5193.0000    17815.0000    17373.0000     5998.0000     9282.0000    31119.0000    30394.0000    10296.7500     9284.7500    31463.0000    30639.7500    10359.7500        1.0000
    4988.60045     4391.7500        9.0000     5130.0000    17890.0000    17207.0000     6061.0000     9183.0000    31100.0000    30450.0000    10371.7500     9183.7500    31478.0000    30728.7500    10440.7500        1.0000
    4988.90014     4391.7500        8.0000     5152.0000    17627.0000    17163.0000     5948.0000     9180.0000    31203.0000    30281.0000    10289.7500     9172.7500    31545.0000    30562.7500    10353.7500        1.0000
    4989.19991     4393.7500        9.0000     5207.0000    17448.0000    16982.0000     6040.0000     9283.0000    30738.0000    30090.0000    10391.7500     9277.7500    31045.0000    30354.7500    10454.7500        1.0000
    4989.49975     4397.7500       10.0000     5163.0000    17400.0000    16868.0000     5790.0000     9312.0000    31072.0000    30117.0000    10203.7500     9299.7500    31419.0000    30398.7500    10251.7500        1.0000
    4989.79966     4399.7500        9.0000     5119.0000    17209.0000    16928.0000     5808.0000     9167.0000    30770.0000    30234.0000    10235.7500     9168.7500    31088.0000    30533.7500    10295.7500        1.0000
    4990.09964     4402.7500        9.0000     5005.0000    17444.0000    16894.0000     5847.0000     9115.0000    30648.0000    30194.0000    10333.7500     9099.7500    30990.0000    30435.7500    10397.7500        1.0000
    4990.39970     4405.7500        8.0000     4966.0000    17451.0000    16511.0000     5921.0000     9046.0000    30737.0000    29813.0000    10332.7500     9041.7500    31098.0000    30059.7500    10377.7500        1.0000
    4990.69983     4408.7500        9.0000     4946.0000    17321.0000    16721.0000     5909.0000     9233.0000    30978.0000    30063.0000    10330.7500     9236.7500    31329.0000    30325.7500    10377.7500        1.0000
    4991.00003     4411.7500       10.0000     4862.0000    17282.0000    16751.0000     5814.0000     8987.0000    30853.0000    30036.0000    10399.7500     8995.7500    31182.0000    30299.7500    10443.7500        1.0000
    4991.30030     4414.7500        9.0000     4979.0000    17292.0000    16566.0000     5843.0000     9138.0000    30912.0000    29771.0000    10297.7500     9139.7500    31274.0000    30056.7500    10369.7500        1.0000
    4991.60065     4415.7500        9.0000     4903.0000    17303.0000    16613.0000     5861.0000     9060.0000    31081.0000    30017.0000    10419.7500     9056.7500    31391.0000    30274.7500    10470.7500        1.0000
    4991.89894     4418.7500       10.0000     4945.0000    17128.0000    16797.0000     5810.0000     9046.0000    30525.0000    30039.0000    10307.7500     9037.7500    30850.0000    30301.7500    10358.7500        1.0000
    4992.19943     4421.7500       10.0000     5033.0000    17379.0000    16589.0000     5940.0000     9387.0000    31254.0000    29874.0000    10405.7500     9394.7500    31619.0000    30147.7500    10461.7500        1.0000
    4992.49999     4426.7500        8.0000     5080.0000    17328.0000    16758.0000     6056.0000     9270.0000    31035.0000    30226.0000    10494.7500     9262.7500    31379.0000    30474.7500    10549.7500        1.0000
    4992.80063     4428.7500        8.0000     4962.0000    17480.0000    16689.0000     5843.0000     9038.0000    31325.0000    29907.0000    10362.7500     9059.7500    31660.0000    30190.7500    10419.7500        1.0000
    4993.09921     4430.7500       10.0000     5068.0000    17326.0000    16566.0000     5810.0000     9259.0000    31077.0000    29970.0000    10189.7500     9259.7500    31426.0000    30221.7500    10235.7500        1.0000
    4993.39999     4433.7500        9.0000     4926.0000    17392.0000    16809.0000     5803.0000     9129.0000    30994.0000    30101.0000    10360.7500     9127.7500    31368.0000    30375.7500    10398.7500        1.0000
    4993.70084     4436.7500        9.0000     5025.0000    17462.0000    16720.0000     5782.0000     9229.0000    31012.0000    30059.0000    10235.7500     9221.7500    31378.0000    30342.7500    10285.7500        1.0000
    4993.99964     4439.7500        9.0000     4927.0000    17415.0000    16748.0000     5832.0000     9222.0000    31066.0000    30278.0000    10319.7500     9209.7500    31406.0000    30545.7500    10357.7500        1.0000
    4994.30064     4441.7500        9.0000     5192.0000    17435.0000    16870.0000     6002.0000     9210.0000    31028.0000    30167.0000    10463.7500     9216.7500    31365.0000    30454.7500    10517.7500        1.0000
    4994.59957     4443.7500        8.0000     4981.0000    17647.0000    16892.0000     6032.0000     9229.0000    31141.0000    30101.0000    10529.7500     9232.7500    31512.0000    30380.7500    10575.7500        1.0000
    4994.90072     4448.7500        9.0000     5025.0000    17831.0000    17165.0000     6167.0000     9373.0000    31461.0000    30571.0000    10552.7500     9378.7500    31831.0000    30891.7500    10608.7500        1.0000
    4995.19980     4449.7500        8.0000     5022.0000    17938.0000    17346.0000     6002.0000     9320.0000    31665.0000    30658.0000    10517.7500     9316.7500    32012.0000    30922.7500    10591.7500        1.0000
    4995.49895     4454.7500        8.0000     5095.0000    17895.0000    17153.0000     6176.0000     9352.0000    31465.0000    30575.0000    10648.7500     9357.7500    31814.0000    30821.7500    10697.7500        1.0000
    4995.80032     4456.7500       10.0000     5057.0000    18011.0000    17511.0000     6124.0000     9379.0000    31562.0000    31079.0000    10569.7500     9377.7500    31901.0000    31350.7500    10605.7500        1.0000
    4997.07925     6380.8550       14.6000     7620.0000    26280.0000    25097.0000     8952.0000    13557.5720    45619.5720    44153.1440    15336.2150    13560.2150    46180.5720    44579.2150    15414.2150        1.4280
    4998.17529     6510.8237       13.3500     7973.0000    26930.0000    26351.0000     9274.0000    14140.5470    46684.5470    45644.0940    15718.1838    14138.1838    47231.5470    46058.1837    15797.1838        1.4530
    4999.29373     6642.7925       14.1000     8209.0000    28119.0000    27273.0000     9487.0000    14390.5220    47714.5220    46981.0440    15958.1525    14378.1525    48303.5220    47448.1525    16044.1525        1.4780
    5000.42819     6771.7612       15.8500     8433.0000    29333.0000    28217.0000     9819.0000    14680.4970    49488.4970    48004.9940    16382.1213    14678.1213    50085.4970    48429.1212    16478.1213        1.5030
    5001.58301     6901.7300       14.6000     8707.0000    29831.0000    28949.0000    10116.0000    15163.4720    50490.4720    48942.9440    16804.0900    15167.0900    51125.4720    49405.0900    16905.0900        1.5280
    5002.75824     7033.6987       14.3500     8699.0000    30285.0000    29127.0000    10281.0000    15352.4470    51572.4470    49869.8940    17214.0588    15362.0588    52189.4470    50399.0587    17290.0588        1.5530
    5003.94962     7169.6675       16.1000     8654.0000    30227.0000    28888.0000    10388.0000    15416.4220    51909.4220    50208.8440    17595.0275    15428.0275    52543.4220    50658.0275    17682.0275        1.5780
    5005.16152     7301.6362       15.8500     8625.0000    29850.0000    28799.0000    10106.0000    15658.3970    52221.3970    50908.7940    17424.9963    15669.9963    52837.3970    51404.9962    17508.9963        1.6030
    5006.39398     7437.6050       14.6000     8451.0000    29112.0000    28261.0000     9955.0000    15547.3720    52358.3720    50884.7440    17678.9650    15559.9650    52991.3720    51332.9650    17760.9650        1.6280
    5007.64276     7573.5737       16.3500     8417.0000    29209.0000    27990.0000     9964.0000    15796.3470    52948.3470    51323.6940    17824.9338    15780.9338    53595.3470    51742.9337    17916.9338        1.6530
    5008.91221     7712.5425       15.1000     8466.0000    29167.0000    28219.0000    10149.0000    15991.3220    53273.3220    52141.6440    18179.9025    15982.9025    53869.3220    52606.9025    18288.9025        1.6780
    5010.20023     7854.5112       15.8500     8360.0000    29524.0000    28745.0000    10161.0000    15731.2970    54364.2970    53224.5940    18269.8713    15724.8713    54993.2970    53729.8712    18367.8713        1.7030
    5011.50904     7993.4800       16.6000     8816.0000    30151.0000    28668.0000    10317.0000    16664.2720    55578.2720    53419.5440    18657.8400    16668.8400    56185.2720    53908.8400    18752.8400        1.7280
    5012.83437     8133.4487       16.3500     8742.0000    30316.0000    29252.0000    10398.0000    16690.2470    56316.2470    54667.4940    18890.8088    16680.8088    56973.2470    55188.8087    18982.8088        1.7530
    5014.18061     8278.4175       18.1000     8701.0000    30470.0000    29408.0000    10333.0000    16840.2220    57149.2220    55237.4440    18993.7775    16844.7775    57782.2220    55761.7775    19069.7775        1.7780
    5015.54346     8418.3862       16.8500     8940.0000    30547.0000    29808.0000    10573.0000    17235.1970    57944.1970    56317.3940    19487.7463    17242.7463    58632.1970    56826.7462    19571.7463        1.8030
    5016.92734     8565.3550       16.6000     9010.0000    31036.0000    30212.0000    10660.0000    17413.1720    58781.1720    57317.3440    19690.7150    17413.7150    59426.1720    57847.7150    19794.7150        1.8280
    5018.33013     8709.3237       18.3500     9149.0000    31313.0000    30231.0000    10976.0000    17897.1470    59694.1470    57661.2940    20183.6838    17910.6838    60349.1470    58245.6837    20296.6838        1.8530
    5019.75189     8851.2925       18.1000     9527.0000    31671.0000    31019.0000    11030.0000    18365.1220    60119.1220    58819.2440    20443.6525    18353.6525    60887.1220    59381.6525    20553.6525        1.8780
    5021.19267     9001.2612       19.8500     9439.0000    32400.0000    31437.0000    11269.0000    18456.0970    61538.0970    59928.1940    20691.6213    18450.6213    62268.0970    60558.6212    20812.6213        1.9030
    5022.65254     9150.2300       18.6000     9534.0000    32983.0000    31985.0000    11300.0000    18588.0720    63046.0720    60993.1440    21067.5900    18573.5900    63830.0720    61601.5900    21185.5900        1.9280
    5024.13156     9295.1987       19.3500     9740.0000    33187.0000    32095.0000    11365.0000    19014.0470    63736.0470    61760.0940    21271.5588    19015.5588    64467.0470    62369.5587    21377.5588        1.9530
    5025.62760     9450.1675       21.1000     9854.0000    33946.0000    32522.0000    11679.0000    19357.0220    64770.0220    63030.0440    21795.5275    19367.5275    65539.0220    63619.5275    21881.5275        1.9780
    5027.14509     9606.1362       20.8500    10096.0000    34411.0000    33416.0000    11901.0000    19631.9970    65871.9970    63903.9940    22045.4963    19623.4963    66658.9970    64465.4962    22154.4963        2.0030
    5028.68192     9762.1050       21.6000    10461.0000    35111.0000    34413.0000    12114.0000    20324.9720    66882.9720    65411.9440    22532.4650    20321.4650    67716.9720    66053.4650    22663.4650        2.0280
    5030.23595     9920.0737       20.3500    10536.0000    36371.0000    35085.0000    12486.0000    20521.9470    68412.9470    66747.8940    22976.4338    20527.4338    69159.9470    67372.4337    23110.4338        2.0530
    5031.80944    10081.0425       20.1000    10896.0000    37157.0000    35860.0000    12881.0000    20840.9220    70020.9220    68176.8440    24040.4025    20847.4025    70914.9220    68852.4025    24184.4025        2.0780
    5033.40245    10244.0112       22.8500    11029.0000    37584.0000    36277.0000    12944.0000    21297.8970    70893.8970    69084.7940    23862.3713    21284.3713    71747.8970    69774.3712    24018.3713        2.1030
    5035.01504    10403.9800       22.6000    11163.0000    38219.0000    36709.0000    12978.0000    21584.8720    72407.8720    69910.7440    24100.3400    21603.3400    73218.8720    70581.3400    24258.3400        2.1280
    5036.64509    10565.9487       22.3500    11383.0000    38412.0000    37185.0000    13122.0000    22152.8470    72727.8470    70935.6940    24509.3088    22152.3088    73621.8470    71663.3087    24622.3088        2.1530
    5038.29706    10729.9175       22.1000    11279.0000    39077.0000    37142.0000    13429.0000    22203.8220    74616.8220    71645.6440    25229.2775    22204.2775    75520.8220    72435.2775    25352.2775        2.1780
    5039.96439    10890.8862       22.8500    11442.0000    39669.0000    37903.0000    13607.0000    22623.7970    75804.7970    73178.5940    25575.2463    22637.2463    76713.7970    73898.2462    25726.2463        2.2030
    5041.65379    11014.8550       22.6000    11735.0000    39901.0000    38611.0000    13716.0000    23001.7720    75824.7720    74254.5440    25663.2150    23012.2150    76751.7720    75027.2150    25816.2150        2.2280
    5043.36090    11188.8237       22.3500    12153.0000    41343.0000    39745.0000    14291.0000    23466.7470    78011.7470    75622.4940    26391.1838    23467.1838    79044.7470    76382.1837    26539.1838        2.2530
    5045.08799    11409.7925       24.1000    12423.0000    42423.0000    41026.0000    14871.0000    24036.7220    80220.7220    77194.4440    26988.1525    24054.1525    81231.7220    78029.1525    27101.1525        2.2780
    5046.83292    11591.7612       24.8500    12699.0000    43246.0000    41766.0000    15023.0000    24281.6970    80983.6970    79019.3940    27502.1213    24309.1213    82088.6970    79787.1212    27641.1213        2.3030
    5048.59798    11757.7300       26.6000    13158.0000    44678.0000    43212.0000    15367.0000    24863.6720    83247.6720    80976.3440    28199.0900    24892.0900    84367.6720    81873.0900    28330.0900        2.3280
    5050.38101    11931.6987       25.3500    13427.0000    45682.0000    43658.0000    15620.0000    25568.6470    84930.6470    81716.2940    28456.0588    25585.0588    86012.6470    82594.0587    28587.0588        2.3530
    5052.18207    12104.6675       25.1000    13528.0000    46565.0000    44785.0000    15720.0000    25830.6220    86400.6220    83492.2440    28681.0275    25845.0275    87521.6220    84390.0275    28843.0275        2.3780
    5054.00571    12285.6362       26.8500    13941.0000    47731.0000    46231.0000    16322.0000    26311.5970    87799.5970    85293.1940    29260.9963    26348.9963    88977.5970    86179.9962    29477.9963        2.4030
    5055.84528    12456.6050       26.6000    14086.0000    48260.0000    46651.0000    16745.0000    26605.5720    88907.5720    86556.1440    30263.9650    26642.9650    90089.5720    87580.9650    30426.9650        2.4280
    5057.70533    12643.5737       27.3500    14339.0000    49091.0000    47484.0000    17013.0000    26988.5470    90710.5470    88202.0940    30652.9338    27005.9338    91991.5470    89153.9337    30802.9338        2.4530
    5059.58370    12821.5425       30.1000    14678.0000    50087.0000    48807.0000    17135.0000    27686.5220    92214.5220    89598.0440    30793.9025    27705.9025    93550.5220    90628.9025    30976.9025        2.4780
    5061.48045    12997.5112       27.8500    14976.0000    50992.0000    49433.0000    17543.0000    28063.4970    93439.4970    91198.9940    31584.8713    28080.8713    94761.4970    92276.8712    31763.8713        2.5030
    5063.39790    13175.4800       31.6000    15209.0000    52475.0000    50449.0000    17739.0000    28531.4720    95844.4720    92787.9440    32002.8400    28553.8400    97121.4720    93834.8400    32167.8400        2.5280
    5065.33388    13386.4487       30.3500    15534.0000    53809.0000    51685.0000    18288.0000    28983.4470    97904.4470    94525.8940    32641.8088    29006.8088    99318.4470    95629.8087    32835.8087        2.5530
    5067.28845    13575.4175       30.1000    15774.0000    53829.0000    51891.0000    18467.0000    29493.4220    98535.4220    95140.8440    32922.7775    29518.7775    99884.4220    96267.7775    33157.7775        2.5780
    5069.26395    13760.3862       30.8500    16163.0000    54622.0000    52785.0000    18613.0000    30088.3970    99842.3970    96810.7940    33418.7462    30107.7463   101223.3970    97896.7462    33619.7462        2.6030
    5071.25592    13950.3550       30.6000    16115.0000    54929.0000    53491.0000    18827.0000    30549.3720   100953.3720    98287.7440    33915.7150    30555.7150   102441.3720    99442.7150    34122.7150        2.6280
    5073.26898    14155.3237       30.3500    16377.0000    55538.0000    54183.0000    19625.0000    30636.3470   102407.3470    99793.6940    35083.6837    30697.6838   103856.3470   101011.6837    35315.6837        2.6530
    5075.29866    14351.2925       33.1000    16484.0000    56019.0000    54275.0000    19455.0000    31244.3220   103396.3220   101079.6440    35091.6525    31270.6525   104919.3220   102255.6525    35305.6525        2.6780
    5077.34956    14549.2612       32.8500    16777.0000    56482.0000    54869.0000    19395.0000    31640.2970   104761.2970   102317.5940    35235.6212    31667.6213   106356.2970   103526.6212    35445.6212        2.7030
    5079.41951    14752.2300       32.6000    17027.0000    57741.0000    55730.0000    19888.0000    32047.2720   106893.2720   104043.5440    36122.5900    32098.5900   108411.2720   105188.5900    36365.5900        2.7280
    5081.50628    14960.1987       34.3500    17215.0000    58399.0000    56585.0000    20065.0000    32700.2470   108180.2470   105682.4940    36583.5587    32755.5588   109710.2470   106960.5587    36800.5587        2.7530
    5083.61452    15159.1675       34.1000    17161.0000    59092.0000    57089.0000    20421.0000    32882.2220   109391.2220   106699.4440    37112.5275    32941.5275   111089.2220   108041.5275    37318.5275        2.7780
    5085.74202    15378.1362       35.8500    17713.0000    59726.0000    57488.0000    20440.0000    33667.1970   111349.1970   108028.3940    37623.4962    33697.4962   113079.1970   109413.4962    37818.4962        2.8030
    5087.88657    15588.1050       34.6000    17683.0000    60365.0000    58773.0000    20762.0000    33648.1720   112525.1720   110464.3440    38090.4650    33698.4650   114186.1720   111750.4650    38353.4650        2.8280
    5090.05054    15808.0737       37.3500    18131.0000    61352.0000    58902.0000    20876.0000    34719.1470   114690.1470   111146.2940    38532.4337    34763.4337   116438.1470   112561.4337    38792.4337        2.8530
    5092.23399    16029.0425       37.1000    18200.0000    61526.0000    59974.0000    21381.0000    34874.1220   115685.1220   113342.2440    39335.4025    34894.4025   117376.1220   114715.4025    39609.4025        2.8780
    5094.43701    16248.0112       35.8500    18145.0000    62358.0000    60666.0000    21571.0000    35053.0970   117439.0970   115176.1940    39797.3712    35100.3712   119247.0970   116630.3712    40069.3712        2.9030
    5096.65967    16464.9800       37.6000    18722.0000    63131.0000    60911.0000    21786.0000    35919.0720   118734.0720   115911.1440    40118.3400    35954.3400   120457.0720   117353.3400    40349.3400        2.9280
    5098.89975    16689.9487       38.3500    18982.0000    64207.0000    62511.0000    22305.0000    36511.0470   121342.0470   118287.0940    40981.3087    36531.3087   123256.0470   119807.3087    41255.3087        2.9530
    5101.15964    16914.9175       40.1000    19394.0000    64892.0000    63030.0000    22738.0000    37293.0220   122431.0220   119395.0440    41761.2775    37325.2775   124337.0220   120927.2775    42029.2775        2.9780
    5103.43708    17131.8862       38.8500    19269.0000    66325.0000    63580.0000    22879.0000    37135.9970   124634.9970   121452.9940    42106.2462    37160.2462   126510.9970   123107.2462    42390.2462        3.0030
    5105.73681    17344.8550       39.6000    19629.0000    66940.0000    64750.0000    23081.0000    37985.9720   125968.9720   123112.9440    42748.2150    38020.2150   127914.9720   124697.2150    43034.2150        3.0280
    5108.05193    17576.8237       41.3500    19936.0000    68140.0000    65804.0000    23623.0000    38410.9470   128512.9470   125361.8940    43546.1837    38445.1837   130547.9470   127027.1837    43823.1837        3.0530
    5110.38949    17797.7925       40.1000    20148.0000    69144.0000    66727.0000    23911.0000    39049.9220   129899.9220   126788.8440    43993.1525    39090.1525   131984.9220   128514.1525    44290.1525        3.0780
    5112.74259    18027.7612       42.8500    20605.0000    69889.0000    67959.0000    24419.0000    39612.8970   131781.8970   129073.7940    44738.1212    39671.1212   133860.8970   130822.1212    45047.1212        3.1030
    5115.11831    18267.7300       42.6000    20822.0000    70274.0000    68909.0000    24736.0000    40315.8720   133271.8720   131179.7440    45484.0900    40384.0900   135409.8720   133003.0900    45779.0900        3.1280
    5117.50971    18508.6987       43.3500    21180.0000    71563.0000    69491.0000    24787.0000    41073.8470   135620.8470   132385.6940    45981.0587    41126.0587   137844.8470   134266.0587    46350.0587        3.1530
    5119.92390    18749.6675       44.1000    21631.0000    72602.0000    71027.0000    25072.0000    41527.8220   137301.8220   134909.6440    46520.0275    41572.0275   139677.8220   136768.0275    46834.0275        3.1780
    5122.35392    18993.6362       43.8500    21800.0000    73470.0000    71696.0000    25770.0000    42038.7970   139963.7970   136280.5940    47742.9962    42097.9962   142273.7970   138161.9962    48059.9962        3.2030
    5124.80454    19247.6050       45.6000    22350.0000    75458.0000    72693.0000    26161.0000    42673.7720   142223.7720   138549.5440    48094.9650    42762.9650   144549.7720   140552.9650    48422.9650        3.2280
    5127.27350    19499.5737       46.3500    22524.0000    76199.0000    73710.0000    26539.0000    43092.7470   143505.7470   140495.4940    48921.9337    43144.9337   145925.7470   142635.9337    49281.9337        3.2530
    5129.76087    19771.5425       46.1000    23105.0000    77753.0000    75004.0000    26812.0000    44082.7220   146295.7220   142402.4440    49498.9025    44182.9025   148900.7220   144490.9025    49809.9025        3.2780
    5132.26909    20027.5112       47.8500    23406.0000    79125.0000    76469.0000    27446.0000    44549.6970   148429.6970   144548.3940    50640.8712    44653.8712   150952.6970   146719.8712    51007.8712        3.3030
    5134.79589    20269.4800       48.6000    23967.0000    80139.0000    78043.0000    28137.0000    45618.6720   150739.6720   147350.3440    51511.8400    45718.8400   153378.6720   149555.8400    51875.8400        3.3280
    5137.34133    20537.4487       49.3500    24282.0000    81708.0000    79095.0000    28277.0000    46350.6470   152945.6470   148989.2940    52120.8087    46432.8087   155553.6470   151079.8087    52487.8087        3.3530
    5139.90551    20802.4175       49.1000    24439.0000    82668.0000    79654.0000    28649.0000    46878.6220   155090.6220   151130.2440    52656.7775    46940.7775   157869.6220   153389.7775    53004.7775        3.3780
    5142.48849    21076.3862       50.8500    25089.0000    83554.0000    81484.0000    29162.0000    47786.5970   157181.5970   153391.1940    53605.7462    47876.7462   159981.5970   155726.7462    53941.7462        3.4030
    5145.09275    21343.3550       51.6000    25163.0000    85038.0000    82513.0000    29815.0000    47862.5720   159883.5720   156402.1440    54584.7150    47943.7150   162661.5720   158781.7150    54978.7150        3.4280
    5147.71360    21629.3237       51.3500    25453.0000    86204.0000    83710.0000    29838.0000    48699.5470   162328.5470   158721.0940    55265.6837    48763.6837   165212.5470   161096.6837    55653.6837        3.4530
    5150.35349    21919.2925       51.1000    26027.0000    87210.0000    84624.0000    30597.0000    49533.5220   164136.5220   161129.0440    56516.6525    49653.6525   167119.5220   163616.6525    56924.6525        3.4780
    5153.01491    22202.2612       53.8500    26397.0000    88532.0000    85735.0000    30564.0000    50348.4970   166547.4970   162427.9940    56907.6212    50423.6212   169582.4970   164956.6212    57329.6212        3.5030
    5155.69315    22480.2300       55.6000    26324.0000    90271.0000    86826.0000    30945.0000    50683.4720   169612.4720   164857.9440    57543.5900    50802.5900   172769.4720   167357.5900    57918.5900        3.5280
    5158.39068    22770.1987       56.3500    27116.0000    90774.0000    88229.0000    31702.0000    52021.4470   171434.4470   167822.8940    58495.5587    52144.5587   174602.4470   170561.5587    58891.5587        3.5530
    5161.10759    23058.1675       55.1000    27357.0000    92716.0000    89773.0000    32208.0000    52378.4220   173965.4220   170748.8440    59296.5275    52468.5275   177220.4220   173581.5275    59761.5275        3.5780
    5163.84395    23346.1362       56.8500    27553.0000    93630.0000    91357.0000    32713.0000    53104.3970   176272.3970   172583.7940    60651.4962    53203.4962   179603.3970   175462.4962    61112.4962        3.6030
    5166.59986    23639.1050       57.6000    28018.0000    95456.0000    92285.0000    33023.0000    54179.3720   179561.3720   175306.7440    60809.4650    54278.4650   182891.3720   178267.4650    61274.4650        3.6280
    5169.37297    23934.0737       59.3500    28701.0000    96228.0000    93390.0000    33443.0000    54895.3470   181767.3470   177488.6940    61451.4337    55015.4337   185214.3470   180374.4337    61935.4337        3.6530
    5172.16579    24224.0425       59.1000    29002.0000    97402.0000    95156.0000    33827.0000    55300.3220   183934.3220   180466.6440    62958.4025    55440.4025   187480.3220   183394.4025    63454.4025        3.6780
    5174.97839    24518.0112       59.8500    29221.0000    98645.0000    95407.0000    34161.0000    56345.2970   186338.2970   181671.5940    63730.3712    56442.3712   189834.2970   184648.3712    64269.3712        3.7030
    5177.81086    24818.9800       62.6000    29401.0000    99712.0000    97137.0000    34952.0000    56478.2720   188504.2720   184962.5440    64802.3400    56566.3400   192107.2720   188169.3400    65306.3400        3.7280
    5180.66085    25130.9487       60.3500    29803.0000   101121.0000    98281.0000    35245.0000    57708.2470   191313.2470   187794.4940    65291.3087    57848.3087   195109.2470   190950.3087    65814.3087        3.7530
    5183.52844    25422.9175       63.1000    30708.0000   101956.0000    99434.0000    35951.0000    59041.2220   194099.2220   189880.4440    66595.2775    59151.2775   198060.2220   193092.2775    67144.2775        3.7780
    5186.41859    25737.8862       64.8500    30890.0000   103380.0000   100606.0000    36487.0000    59306.1970   196296.1970   192201.3940    67449.2462    59410.2462   200187.1970   195571.2462    67944.2462        3.8030
    5189.32649    26051.8550       65.6000    31428.0000   104822.0000   102533.0000    36513.0000    60502.1720   198987.1720   195293.3440    67957.2150    60606.2150   202966.1720   198756.2150    68487.2150        3.8280
    5192.25223    26366.8237       66.3500    31765.0000   106226.0000   103620.0000    37418.0000    61140.1470   201476.1470   197997.2940    69604.1837    61295.1837   205693.1470   201404.1837    70166.1837        3.8530
    5195.19833    26693.7925       65.1000    32456.0000   107155.0000   105405.0000    38154.0000    62551.1220   204055.1220   200575.2440    70713.1525    62664.1525   208261.1220   204178.1525    71323.1525        3.8780
    5198.16243    27034.7612       67.8500    32513.0000   109235.0000   106885.0000    38522.0000    62808.0970   207941.0970   204115.1940    71565.1212    62981.1212   212100.0970   207882.1212    72167.1212        3.9030
    5201.14459    27391.7300       68.6000    33130.0000   111485.0000   108767.0000    38901.0000    63828.0720   211245.0720   207398.1440    71882.0900    63975.0900   215753.0720   211206.0900    72532.0900        3.9280
    5204.14737    27747.6987       69.3500    33252.0000   112362.0000   109831.0000    39460.0000    64166.0470   213163.0470   209609.0940    73541.0587    64350.0587   217731.0470   213482.0587    74217.0587        3.9530
    5207.17086    28065.6675       70.1000    33662.0000   113168.0000   110826.0000    40110.0000    65292.0220   215724.0220   212433.0440    74217.0275    65457.0275   220310.0220   216320.0275    74827.0275        3.9780
    5210.21018    28408.6362       71.8500    34255.0000   115461.0000   111981.0000    40555.0000    66500.9970   220055.9970   215040.9940    75704.9962    66669.9962   224848.9970   219123.9962    76468.9962        4.0030
    5213.27037    28747.6050       72.6000    34724.0000   116722.0000   113338.0000    40882.0000    67279.9720   222244.9720   217816.9440    76431.9650    67488.9650   227024.9720   221815.9650    77193.9650        4.0280
    5216.34903    29094.5737       73.3500    35190.0000   118712.0000   115264.0000    42062.0000    68160.9470   225297.9470   221420.8940    77740.9337    68381.9337   230093.9470   225807.9337    78411.9337        4.0530
    5219.44874    29468.5425       76.1000    36199.0000   119788.0000   117124.0000    42022.0000    69273.9220   228324.9220   224782.8440    78681.9025    69514.9025   233393.9220   229164.9025    79413.9025        4.0780
    5222.56457    29841.5112       77.8500    36455.0000   121298.0000   118913.0000    42722.0000    70137.8970   231783.8970   228187.7940    79978.8712    70387.8712   237082.8970   232608.8712    80725.8712        4.1030
    5225.70162    30205.4800       76.6000    36962.0000   123729.0000   120219.0000    43371.0000    71537.8720   235816.8720   230434.7440    80987.8400    71747.8400   241150.8720   234844.8400    81792.8400        4.1280
    5228.85495    30576.4487       77.3500    37357.0000   125076.0000   121434.0000    44213.0000    72205.8470   239003.8470   234018.6940    82367.8087    72388.8087   244508.8470   238603.8087    83155.8087        4.1530
    5232.02966    30925.4175       80.1000    37767.0000   127121.0000   123433.0000    44648.0000    73313.8220   241912.8220   236764.6440    83405.7775    73510.7775   247379.8220   241523.7775    84228.7775        4.1780
    5235.22332    31274.3862       81.8500    38353.0000   128111.0000   125402.0000    45639.0000    74453.7970   244264.7970   240812.5940    84774.7462    74673.7462   249830.7970   245628.7462    85604.7462        4.2030
    5238.43602    31661.3550       83.6000    38950.0000   130658.0000   126990.0000    45785.0000    75335.7720   248370.7720   243682.5440    85329.7150    75619.7150   254187.7720   248693.7150    86207.7150        4.2280
    5241.66783    32044.3237       85.3500    39772.0000   132274.0000   129540.0000    46764.0000    76662.7470   251684.7470   248157.4940    87175.6837    76879.6837   257509.7470   253312.6837    88074.6837        4.2530
    5244.91628    32445.2925       85.1000    40191.0000   134387.0000   130825.0000    47542.0000    77893.7220   255470.7220   251185.4440    88018.6525    78218.6525   261508.7220   256411.6525    88970.6525        4.2780
    5248.18656    32821.2613       84.8500    40643.0000   135938.0000   132542.0000    48129.0000    78655.6970   259600.6970   254524.3940    89800.6212    78893.6212   265713.6970   260019.6212    90773.6212        4.3030
    5251.47363    33207.2300       87.6000    41199.0000   137731.0000   134435.0000    48596.0000    80206.6720   262121.6720   258530.3440    90749.5900    80476.5900   268467.6720   264093.5900    91664.5900        4.3280
    5254.78270    33607.1988       88.3500    41944.0000   139414.0000   136010.0000    49719.0000    80676.6470   265785.6470   260907.2940    91981.5587    80961.5587   272089.6470   266505.5588    92965.5587        4.3530
    5258.10872    34019.1675       90.1000    42463.0000   141001.0000   137598.0000    49979.0000    82274.6220   268730.6220   264695.2440    92978.5275    82536.5275   275227.6220   270479.5275    93991.5275        4.3780
    5261.45433    34408.1363       90.8500    42869.0000   142904.0000   139536.0000    50673.0000    83292.5970   272494.5970   268795.1940    94640.4962    83565.4962   279433.5970   274832.4963    95723.4962        4.4030
    5264.81963    34785.1050       94.6000    43455.0000   144609.0000   142271.0000    51398.0000    83959.5720   276682.5720   273141.1440    96217.4650    84305.4650   283423.5720   279132.4650    97221.4650        4.4280
    5268.20211    35217.0738       95.3500    43660.0000   146941.0000   143756.0000    52183.0000    84720.5470   280711.5470   277032.0940    97335.4337    85047.4337   287764.5470   283185.4338    98422.4337        4.4530
    5271.60442    35613.0425       94.1000    44599.0000   147990.0000   145708.0000    52844.0000    86373.5220   283962.5220   279587.0440    98740.4025    86680.4025   291100.5220   286028.4025    99840.4025        4.4780
    5275.02665    36022.0113       97.8500    44961.0000   150174.0000   148057.0000    53809.0000    87412.4970   287297.4970   284475.9940   100374.3712    87750.3712   294789.4970   291118.3713   101435.3712        4.5030
    5278.46889    36441.9800       99.6000    45960.0000   152511.0000   148910.0000    54534.0000    88679.4720   291933.4720   287257.9440   101860.3400    89080.3400   299390.4720   293911.3400   102994.3400        4.5280
    5281.92862    36882.9488       98.3500    46307.0000   155057.0000   152092.0000    55066.0000    90008.4470   295211.4470   292036.8940   102957.3087    90362.3087   302878.4470   298856.3088   104148.3087        4.5530
    5285.40590    37328.9175      101.1000    47262.0000   156393.0000   154037.0000    55942.0000    91818.4220   298644.4220   296929.8440   104617.2775    92208.2775   306567.4220   303846.2775   105800.2775        4.5780
    5288.90604    37776.8863      100.8500    47731.0000   158791.0000   155691.0000    56573.0000    92359.3970   302879.3970   299488.7940   105653.2462    92765.2462   310874.3970   306592.2463   106879.2462        4.6030
    5292.42128    38210.8550      103.6000    48568.0000   161349.0000   157505.0000    57634.0000    94232.3720   308228.3720   303983.7440   107936.2150    94551.2150   316575.3720   311321.2150   109223.2150        4.6280
    5295.95954    38688.8238      109.3500    49415.0000   163801.0000   160387.0000    58423.0000    95669.3470   311994.3470   308280.6940   109111.1837    96148.1837   320239.3470   315888.1838   110424.1837        4.6530
    5299.51305    39147.7925      109.1000    49636.0000   164774.0000   161659.0000    59407.0000    96718.3220   316950.3220   312508.6440   111007.1525    97127.1525   325415.3220   320251.1525   112294.1525        4.6780
    5303.08712    39611.7613      108.8500    50164.0000   167423.0000   164393.0000    60014.0000    98145.2970   320529.2970   316638.5940   112113.1212    98591.1212   329506.2970   324658.1213   113520.1212        4.7030
    5306.68184    40090.7300      112.6000    51297.0000   170353.0000   167377.0000    60609.0000    99164.2720   325686.2720   322322.5440   114197.0900    99584.0900   334690.2720   330282.0900   115564.0900        4.7280
    5310.29201    40565.6988      112.3500    51795.0000   172295.0000   168382.0000    61681.0000   101135.2470   330449.2470   325063.4940   115694.0587   101567.0587   339785.2470   333378.0588   117097.0587        4.7530
    5313.92565    41038.6675      114.1000    52716.0000   175018.0000   171303.0000    62240.0000   102721.2220   334691.2220   330007.4440   116910.0275   103199.0275   344166.2220   338432.0275   118356.0275        4.7780
    5317.57487    41499.6363      115.8500    53502.0000   176978.0000   173375.0000    63392.0000   103801.1970   339489.1970   334636.3940   119018.9962   104273.9962   349355.1970   343424.9963   120442.9962        4.8030
    5321.24507    41967.6050      119.6000    53908.0000   179400.0000   176423.0000    64339.0000   105032.1720   343584.1720   339911.3440   120282.9650   105520.9650   353592.1720   348991.9650   121869.9650        4.8280
    5324.93367    42479.5738      118.3500    54435.0000   181857.0000   178545.0000    64867.0000   106217.1470   347708.1470   343734.2940   121290.9337   106705.9337   357526.1470   352866.9338   122849.9337        4.8530
    5328.64073    42997.5425      120.1000    55665.0000   183842.0000   180304.0000    65805.0000   108466.1220   353972.1220   348232.2440   123864.9025   109021.9025   364392.1220   357408.9025   125493.9025        4.8780
    5332.36633    43491.5113      122.8500    56069.0000   186099.0000   183023.0000    67071.0000   109318.0970   358186.0970   353442.1940   125336.8712   109858.8712   368832.0970   363002.8713   126923.8712        4.9030
    5336.11323    43999.4800      125.6000    57406.0000   188925.0000   186312.0000    67670.0000   111681.0720   362549.0720   358564.1440   126649.8400   112375.8400   373376.0720   368345.8400   128324.8400        4.9280
    5339.87613    44535.4488      125.3500    58127.0000   191601.0000   188459.0000    68671.0000   113093.0470   368238.0470   363919.0940   128852.8087   113675.8087   379326.0470   373793.8088   130502.8087        4.9530
    5343.66050    45110.4175      128.1000    58641.0000   195110.0000   190817.0000    69456.0000   114485.0220   374182.0220   368842.0440   130668.7775   115128.7775   385819.0220   379030.7775   132484.7775        4.9780
    5347.46371    45663.3863      128.8500    59768.0000   196934.0000   192386.0000    70950.0000   116343.9970   379016.9970   373004.9940   133247.7462   116950.7462   390600.9970   383576.7463   134979.7462        5.0030
    5351.28584    46220.3550      131.6000    60996.0000   199411.0000   195624.0000    71457.0000   118142.9720   383591.9720   378158.9440   133921.7150   118773.7150   395361.9720   388669.7150   135740.7150        5.0280
    5355.12696    46837.3238      133.3500    62113.0000   202769.0000   197781.0000    72544.0000   120347.9470   389976.9470   384197.8940   136513.6837   121034.6837   402294.9470   395175.6838   138401.6837        5.0530
    5358.98716    47405.2925      134.1000    62389.0000   205849.0000   201162.0000    73471.0000   121703.9220   396046.9220   389564.8440   138800.6525   122484.6525   408869.9220   400941.6525   140686.6525        5.0780
    5362.86650    47972.2613      136.8500    63014.0000   208536.0000   203949.0000    74802.0000   123294.8970   401409.8970   394896.7940   140288.6212   124030.6212   414574.8970   406390.6213   142176.6212        5.1030
    5366.76505    48521.2300      138.6000    63971.0000   210994.0000   206308.0000    75901.0000   124771.8720   406722.8720   399374.7440   142928.5900   125586.5900   419995.8720   411310.5900   144900.5900        5.1280
    5370.68017    49102.1988      143.3500    65036.0000   213828.0000   209035.0000    76978.0000   127415.8470   412679.8470   405171.6940   144567.5587   128245.5587   426108.8470   417326.5588   146570.5587        5.1530
    5374.61738    49684.1675      143.1000    66164.0000   217866.0000   212427.0000    77763.0000   128999.8220   418212.8220   410399.6440   146394.5275   129860.5275   432314.8220   423037.5275   148421.5275        5.1780
    5378.57129    50244.1363      146.8500    66906.0000   220512.0000   214847.0000    79354.0000   130465.7970   424017.7970   416721.5940   149141.4962   131322.4962   438320.7970   429688.4963   151250.4962        5.2030
    5382.54747    50800.1050      146.6000    67450.0000   223477.0000   217734.0000    79651.0000   132169.7720   429773.7720   422436.5440   150219.4650   133053.4650   444267.7720   435321.4650   152294.4650        5.2280
    5386.54049    51372.0738      149.3500    68652.0000   226143.0000   221312.0000    80850.0000   134145.7470   435663.7470   429272.4940   151778.4337   135012.4337   450624.7470   442736.4338   153914.4337        5.2530
    5390.55317    51951.0425      152.1000    69798.0000   229436.0000   222976.0000    82111.0000   136675.7220   441286.7220   432296.4440   154697.4025   137588.4025   456546.7220   446051.4025   156980.4025        5.2780
    5394.58281    52541.0113      155.8500    70520.0000   230989.0000   226549.0000    83173.0000   138174.6970   445894.6970   438970.3940   156915.3712   139131.3712   461533.6970   453033.3713   159224.3712        5.3030
    5398.63503    53116.9800      157.6000    71774.0000   234392.0000   229553.0000    84727.0000   140398.6720   451850.6720   445473.3440   159229.3400   141383.3400   467783.6720   459699.3400   161606.3400        5.3280
    5402.70437    53690.9488      159.3500    72293.0000   237702.0000   231544.0000    86032.0000   141712.6470   458486.6470   450256.2940   161389.3087   142754.3087   474843.6470   465010.3088   163752.3087        5.3530
    5406.79087    54292.9175      160.1000    73216.0000   240451.0000   236140.0000    86910.0000   143643.6220   463709.6220   458225.2440   163836.2775   144715.2775   480421.6220   473315.2775   166276.2775        5.3780
    5410.90019    54912.8863      161.8500    74302.0000   243866.0000   237996.0000    88239.0000   145886.5970   470184.5970   463165.1940   166097.2462   146989.2462   487216.5970   478440.2463   168654.2462        5.4030
    5415.02683    55527.8550      164.6000    75323.0000   247060.0000   242002.0000    89045.0000   148568.5720   477052.5720   469358.1440   167859.2150   149719.2150   494701.5720   485229.2150   170454.2150        5.4280
    5419.17083    56178.8238      168.3500    76495.0000   250164.0000   245713.0000    90659.0000   149775.5470   482822.5470   477572.0940   170068.1837   151006.1837   500784.5470   493701.1838   172678.1837        5.4530
    5423.33789    56777.7925      169.1000    77660.0000   253591.0000   248577.0000    91697.0000   151941.5220   489998.5220   482751.0440   172567.1525   153081.1525   508055.5220   499390.1525   175137.1525        5.4780
    5427.51965    57370.7613      169.8500    78900.0000   256091.0000   251998.0000    93044.0000   154592.4970   494823.4970   489462.9940   175284.1212   155793.1212   513639.4970   506297.1213   177910.1212        5.5030
    5431.72462    57972.7300      175.6000    79494.0000   259017.0000   255266.0000    94025.0000   156568.4720   500885.4720   495559.9440   177048.0900   157796.0900   519974.4720   513168.0900   179817.0900        5.5280
    5435.94440    58603.6988      177.3500    80418.0000   261680.0000   257937.0000    95666.0000   157443.4470   506192.4470   501227.8940   179477.0587   158857.0587   525688.4470   518973.0588   182319.0587        5.5530
    5440.18756    59256.6675      180.1000    81369.0000   266624.0000   262141.0000    96777.0000   159605.4220   515064.4220   508971.8440   182313.0275   160952.0275   534950.4220   527295.0275   185315.0275        5.5780
    5444.44565    59921.6363      180.8500    82817.0000   269002.0000   264529.0000    98088.0000   162865.3970   520571.3970   515174.7940   184255.9962   164291.9962   540828.3970   533743.9962   187209.9962        5.6030
    5448.72443    60580.6050      185.6000    83319.0000   273591.0000   269038.0000    99317.0000   163841.3720   528487.3720   521839.7440   186663.9650   165341.9650   549361.3720   541020.9650   189830.9650        5.6280
    5453.02396    61231.5738      186.3500    84431.0000   276159.0000   272194.0000   100849.0000   165884.3470   534601.3470   529923.6940   189673.9337   167452.9337   555730.3470   549542.9337   192757.9337        5.6530
    5457.34146    61886.5425      189.1000    86925.0000   279069.0000   275319.0000   102574.0000   169836.3220   540306.3220   535189.6440   192668.9025   171376.9025   562158.3220   555349.9025   195787.9025        5.6780
    5461.67700    62552.5113      191.8500    87264.0000   282142.0000   279553.0000   103144.0000   171014.2970   546484.2970   542624.5940   194422.8712   172674.8712   568432.2970   563329.8712   197656.8712        5.7030
    5466.03063    63218.4800      193.6000    87968.0000   286237.0000   282470.0000   104222.0000   173245.2720   553534.2720   549365.5440   197260.8400   174906.8400   576291.2720   570255.8400   200468.8400        5.7280
    5470.40530    63889.4488      195.3500    89778.0000   289528.0000   286797.0000   106387.0000   176153.2470   560961.2470   558084.4940   199430.8087   177765.8087   583892.2470   579423.8087   202751.8087        5.7530
    5474.80110    64686.4175      200.1000    90981.0000   294420.0000   289808.0000   107880.0000   179132.2220   569693.2220   563767.4440   203358.7775   181022.7775   593450.2220   585849.7775   206918.7775        5.7780
    5479.21230    65456.3863      201.8500    92075.0000   298402.0000   292835.0000   109489.0000   180556.1970   577183.1970   569980.3940   205468.7462   182529.7462   601865.1970   592481.7462   209086.7462        5.8030
    5483.64475    66211.3550      205.6000    93431.0000   301935.0000   298112.0000   110619.0000   183782.1720   583690.1720   580080.3440   209133.7150   185713.7150   608810.1720   602870.7150   212843.7150        5.8280
    5488.09272    66990.3237      207.3500    94513.0000   306063.0000   301772.0000   112795.0000   186196.1470   592406.1470   587318.2940   212013.6837   188209.6837   618001.1470   611212.6837   215717.6837        5.8530
    5492.56500    67842.2925      210.1000    96011.0000   310096.0000   305097.0000   114636.0000   188878.1220   600868.1220   594899.2440   215866.6525   191000.6525   627259.1220   619000.6525   219814.6525        5.8780
    5497.05292    68489.2612      211.8500    97295.0000   314333.0000   308677.0000   115154.0000   191443.0970   608378.0970   602447.1940   217538.6212   193633.6212   635389.0970   627254.6212   221381.6212        5.9030
    5501.55945    69325.2300      216.6000    98462.0000   318186.0000   312197.0000   116988.0000   194636.0720   617084.0720   610370.1440   220730.5900   197007.5900   644543.0720   635764.5900   224637.5900        5.9280
    5506.08759    69989.1987      219.3500   100023.0000   323070.0000   315854.0000   118446.0000   196416.0470   625779.0470   617314.0940   223302.5587   198791.5587   654054.0470   643037.5587   227320.5587        5.9530
    5510.63154    70776.1675      223.1000   101316.0000   325957.0000   320805.0000   120004.0000   199586.0220   631857.0220   625291.0440   227139.5275   201996.5275   660767.0220   651670.5275   231421.5275        5.9780
    5515.19723    71451.1362      226.8500   102753.0000   329250.0000   323618.0000   122050.0000   201241.9970   639040.9970   631381.9940   230391.4962   203801.4962   668258.9970   657999.4962   234686.4962        6.0030
    5519.78179    72118.1050      227.6000   104150.0000   332815.0000   329141.0000   123768.0000   204907.9720   644968.9720   641464.9440   233312.4650   207442.4650   674902.9720   669247.4650   237661.4650        6.0280
    5524.38529    72768.0737      231.3500   105552.0000   338329.0000   332147.0000   124385.0000   206736.9470   653767.9470   647255.8940   235707.4337   209412.4337   684625.9470   675364.4337   239990.4337        6.0530
    5529.00481    73432.0425      235.1000   106487.0000   340770.0000   336134.0000   126353.0000   208746.9220   660796.9220   655589.8440   238151.4025   211384.4025   692108.9220   684813.4025   242758.4025        6.0780
    5533.64636    74132.0112      236.8500   107563.0000   344405.0000   341123.0000   127859.0000   212062.8970   667423.8970   665407.7940   241430.3712   214646.3712   699313.8970   694958.3712   246023.3712        6.1030
    5538.30703    74885.9800      239.6000   109104.0000   348758.0000   344221.0000   129452.0000   213973.8720   676520.8720   672009.7440   244138.3400   216762.3400   709173.8720   702133.3400   248851.3400        6.1280
    5542.98687    75733.9487      244.3500   110683.0000   353102.0000   349808.0000   131655.0000   218460.8470   685689.8470   682119.6940   248383.3087   221205.3087   718747.8470   713381.3087   253212.3087        6.1530
    5547.68297    76602.9175      247.1000   112000.0000   357900.0000   353854.0000   133236.0000   220473.8220   693851.8220   689971.6440   251105.2775   223409.2775   727791.8220   721446.2775   256032.2775        6.1780
    5552.40137    77416.8862      247.8500   113718.0000   362473.0000   357782.0000   135439.0000   224225.7970   702436.7970   698856.5940   255767.2462   227232.2462   737382.7970   731378.2462   260775.2462        6.2030
    5557.13914    78265.8550      253.6000   115126.0000   367199.0000   362502.0000   136976.0000   226408.7720   711281.7720   708300.5440   258698.2150   229581.2150   746909.7720   741588.2150   263844.2150        6.2280
    5561.89333    79104.8237      254.3500   117227.0000   372419.0000   368156.0000   139264.0000   230296.7470   721113.7470   716996.4940   262775.1838   233503.1837   757760.7470   750819.1837   267997.1838        6.2530
    5566.66700    79375.7925      257.1000   117918.0000   373252.0000   367247.0000   140057.0000   232012.7220   722690.7220   718398.4440   264443.1525   235298.1525   759115.7220   752226.1525   269731.1525        6.2780
    5571.46021    80829.7612      260.8500   120281.0000   380547.0000   375197.0000   142341.0000   236271.6970   737507.6970   734827.3940   268648.1213   239792.1212   775708.6970   770406.1212   274095.1213        6.3030
    5576.27304    81733.7300      266.6000   121863.0000   386618.0000   380831.0000   144036.0000   239912.6720   748295.6720   745473.3440   272577.0900   243418.0900   787155.6720   782162.0900   278073.0900        6.3280
    5581.10553    82433.6987      267.3500   122677.0000   389987.0000   385597.0000   146261.0000   241941.6470   755715.6470   751280.2940   276146.0588   245393.0587   795376.6470   788325.0587   281791.0588        6.3530
    5585.95471    83436.6675      271.1000   123931.0000   395956.0000   390628.0000   147953.0000   244569.6220   767122.6220   764191.2440   279475.0275   248263.0275   808011.6220   802205.0275   285299.0275        6.3780
    5590.82368    84293.6362      275.8500   126776.0000   400532.0000   395327.0000   150068.0000   249241.5970   776796.5970   773925.1940   283967.9963   253017.9962   818561.5970   812760.9962   289896.9963        6.4030
    5595.71249    85198.6050      280.6000   127764.0000   404803.0000   399519.0000   153009.0000   251758.5720   785582.5720   781442.1440   288329.9650   255548.9650   828291.5720   821172.9650   294459.9650        6.4280
    5600.62122    86097.5737      282.3500   129763.0000   410464.0000   405341.0000   154044.0000   256418.5470   795138.5470   792305.0940   291426.9338   260362.9337   838862.5470   833205.9337   297653.9338        6.4530
    5605.54684    86990.5425      289.1000   131390.0000   415613.0000   410397.0000   155555.0000   258984.5220   806729.5220   802999.0440   294746.9025   263021.9025   851591.5220   844654.9025   301125.9025        6.4780
    5610.49248    87963.5112      290.8500   133688.0000   421744.0000   415216.0000   158076.0000   262729.4970   818143.4970   812432.9940   298483.8713   266896.8713   864015.4970   855256.8712   304939.8713        6.5030
    5615.45821    88928.4800      294.6000   134804.0000   425409.0000   420378.0000   160179.0000   264960.4720   827598.4720   823966.9440   302380.8400   269005.8400   874462.4720   867614.8400   309037.8400        6.5280
    5620.44409    89822.4487      298.3500   137223.0000   430896.0000   426078.0000   162750.0000   269054.4470   838275.4470   834205.8940   307331.8088   273179.8088   886342.4470   879132.8087   314333.8088        6.5530
    5625.44708    90849.4175      302.1000   138153.0000   436457.0000   431946.0000   165552.0000   272189.4220   849112.4220   845387.8440   312565.7775   276391.7775   897877.4220   891677.7775   319565.7775        6.5780
    5630.46723    91789.3862      304.8500   140235.0000   441639.0000   437160.0000   167555.0000   277004.3970   859099.3970   855363.7940   315925.7463   281375.7463   909134.3970   902306.7462   323206.7463        6.6030
    5635.50768    92729.3550      307.6000   142160.0000   446004.0000   442264.0000   168664.0000   279411.3720   868003.3720   866344.7440   318928.7150   283751.7150   919169.3720   914623.7150   326260.7150        6.6280
    5640.56851    93676.3237      313.3500   143974.0000   453544.0000   447269.0000   170692.0000   284241.3470   880040.3470   875886.6940   322977.6838   288617.6838   932453.3470   924844.6837   330635.6838        6.6530
    5645.64665    94542.2925      314.1000   145033.0000   457374.0000   452641.0000   173494.0000   287383.3220   889615.3220   886812.6440   327669.6525   291871.6525   942752.3220   936907.6525   335473.6525        6.6780
    5650.74527    95549.2612      317.8500   148004.0000   461685.0000   457817.0000   176108.0000   291183.2970   898579.2970   896851.5940   333233.6213   296015.6213   953133.2970   948066.6212   341082.6213        6.7030
    5655.86445    96484.2300      324.6000   149942.0000   467374.0000   462395.0000   178291.0000   294991.2720   910594.2720   906644.5440   336595.5900   299588.5900   966283.2720   959249.5900   344393.5900        6.7280
    5661.00109    97440.1987      326.3500   151596.0000   473700.0000   468542.0000   180816.0000   298210.2470   921289.2470   916761.4940   341353.5588   302976.5588   977926.2470   970673.5587   349600.5588        6.7530
    5666.15524    98356.1675      330.1000   153355.0000   477898.0000   472882.0000   182112.0000   302196.2220   930624.2220   927612.4440   344603.5275   306908.5275   988623.2220   982124.5275   352900.5275        6.7780
    5671.33010    99229.1362      332.8500   154341.0000   483630.0000   478931.0000   185228.0000   305037.1970   941251.1970   938754.3940   349113.4963   309846.4963  1000296.1970   994770.4962   357768.4963        6.8030
    5676.52257    99995.1050      337.6000   156881.0000   487753.0000   483224.0000   186930.0000   309195.1720   950011.1720   947558.3440   353750.4650   314300.4650  1010431.1720  1003870.4650   362390.4650        6.8280
    5681.73586   100835.0737      341.3500   158417.0000   491538.0000   488470.0000   189483.0000   312512.1470   957986.1470   959367.2940   357877.4338   317577.4338  1018596.1470  1017403.4337   367008.4338        6.8530
    5686.96686   101732.0425      345.1000   159996.0000   496698.0000   495891.0000   191726.0000   315833.1220   969185.1220   971547.2440   363008.4025   320821.4025  1031766.1220  1031076.4025   372199.4025        6.8780
    5692.21879   102627.0112      348.8500   161544.0000   503016.0000   500494.0000   193770.0000   320099.0970   980477.0970   982755.1940   367252.3713   325178.3713  1044410.0970  1043151.3712   376507.3713        6.9030
    5697.48853   103560.9800      354.6000   163011.0000   508782.0000   506765.0000   195512.0000   322889.0720   990779.0720   992643.1440   371520.3400   328223.3400  1055127.0720  1053818.3400   381164.3400        6.9280
    5702.77612   104635.9487      360.3500   165553.0000   514407.0000   513764.0000   198086.0000   327161.0470  1002990.0470  1006917.0940   375391.3088   332804.3088  1069476.0470  1070736.3088   385076.3088        6.9530
    5708.08481   105680.9175      363.1000   167828.0000   520896.0000   518966.0000   201768.0000   331407.0220  1014253.0220  1017062.0440   381441.2775   336787.2775  1081250.0220  1082282.2775   391268.2775        6.9780
    5713.41144   106614.8862      364.8500   169074.0000   525374.0000   523944.0000   203203.0000   334793.9970  1024182.9970  1028373.9940   385652.2463   340275.2463  1092645.9970  1094407.2463   395703.2463        7.0030
