XDAC V1.4 Datafile V1
"cr_calibration.003" created on 10/28/08 at 3:05:56 PM on X-23A2
Diffraction element= Si (311).  Ring energy= 2.80 GeV
E0= 5989.00
NUM_REGIONS= 3
SRB= -150 -20 30 8k
SRSS= 10 0.2 0.1k
SPP= 1 1 1
Settling time= 0.50


Offsets= 120.40 83.00 93.60
Gains= 9.00 9.00 10.00
Cr foil
low energy calibrated by Cr+Fe+Zn foils, mirror at 0.24
~60% N2 rest He in I00, N2 in I0 and It
--------------------------------------------------------------------------------
        Energy            I0            It            Ir
    5838.99833    13261.6000     4727.0000    12776.4000
    5849.00007    13414.6000     4814.0000    13057.4000
    5859.00082    13577.6000     4909.0000    13366.4000
    5869.00014    13740.6000     5008.0000    13690.4000
    5879.00106    13913.6000     5110.0000    14014.4000
    5888.99974    14082.6000     5209.0000    14338.4000
    5898.99923    14249.6000     5310.0000    14662.4000
    5908.99914    14416.6000     5412.0000    15006.4000
    5918.99908    14587.6000     5512.0000    15339.4000
    5928.99869    14757.6000     5617.0000    15680.4000
    5939.00108    14919.6000     5720.0000    16021.4000
    5948.99887    15097.6000     5829.0000    16386.4000
    5958.99872    15261.6000     5934.0000    16747.4000
    5969.00028    15438.6000     6036.0000    17102.4000
    5969.19867    15443.6000     6039.0000    17107.4000
    5969.40061    15451.6000     6044.0000    17112.4000
    5969.59903    15459.6000     6042.0000    17104.4000
    5969.80100    15461.6000     6047.0000    17121.4000
    5969.99944    15462.6000     6051.0000    17127.4000
    5970.20143    15469.6000     6053.0000    17146.4000
    5970.39990    15477.6000     6055.0000    17147.4000
    5970.59838    15476.6000     6057.0000    17147.4000
    5970.80042    15480.6000     6057.0000    17151.4000
    5970.99892    15481.6000     6060.0000    17160.4000
    5971.20099    15496.6000     6063.0000    17168.4000
    5971.39952    15491.6000     6064.0000    17172.4000
    5971.60161    15505.6000     6067.0000    17181.4000
    5971.80017    15500.6000     6070.0000    17182.4000
    5971.99874    15508.6000     6071.0000    17185.4000
    5972.20087    15511.6000     6071.0000    17187.4000
    5972.39947    15517.6000     6074.0000    17194.4000
    5972.60163    15518.6000     6076.0000    17207.4000
    5972.80026    15523.6000     6079.0000    17199.4000
    5972.99889    15532.6000     6083.0000    17211.4000
    5973.20109    15536.6000     6085.0000    17218.4000
    5973.39976    15543.6000     6085.0000    17227.4000
    5973.59843    15545.6000     6089.0000    17235.4000
    5973.80067    15554.6000     6092.0000    17248.4000
    5973.99938    15556.6000     6096.0000    17250.4000
    5974.20164    15555.6000     6093.0000    17247.4000
    5974.40037    15563.6000     6096.0000    17255.4000
    5974.59911    15564.6000     6100.0000    17262.4000
    5974.80142    15573.6000     6105.0000    17268.4000
    5975.00019    15572.6000     6101.0000    17271.4000
    5975.19897    15578.6000     6103.0000    17273.4000
    5975.40132    15581.6000     6103.0000    17282.4000
    5975.60013    15586.6000     6108.0000    17272.4000
    5975.79895    15590.6000     6109.0000    17286.4000
    5976.00134    15594.6000     6109.0000    17299.4000
    5976.20018    15601.6000     6111.0000    17296.4000
    5976.39905    15603.6000     6114.0000    17288.4000
    5976.60147    15608.6000     6118.0000    17316.4000
    5976.80036    15617.6000     6123.0000    17315.4000
    5976.99926    15618.6000     6122.0000    17320.4000
    5977.20173    15624.6000     6124.0000    17321.4000
    5977.40065    15632.6000     6126.0000    17327.4000
    5977.59959    15636.6000     6129.0000    17345.4000
    5977.79855    15637.6000     6130.0000    17351.4000
    5978.00107    15639.6000     6131.0000    17346.4000
    5978.20005    15646.6000     6134.0000    17361.4000
    5978.39904    15651.6000     6134.0000    17365.4000
    5978.60160    15652.6000     6140.0000    17362.4000
    5978.80062    15659.6000     6141.0000    17359.4000
    5978.99965    15664.6000     6142.0000    17386.4000
    5979.19870    15672.6000     6144.0000    17383.4000
    5979.40131    15672.6000     6144.0000    17376.4000
    5979.60038    15671.6000     6145.0000    17382.4000
    5979.79947    15684.6000     6150.0000    17389.4000
    5979.99857    15684.6000     6152.0000    17399.4000
    5980.20123    15690.6000     6154.0000    17394.4000
    5980.40036    15690.6000     6154.0000    17399.4000
    5980.59949    15695.6000     6157.0000    17409.4000
    5980.79865    15705.6000     6157.0000    17431.4000
    5981.00137    15708.6000     6162.0000    17428.4000
    5981.20054    15706.6000     6161.0000    17416.4000
    5981.39973    15712.6000     6163.0000    17423.4000
    5981.59894    15721.6000     6163.0000    17425.4000
    5981.80171    15726.6000     6167.0000    17443.4000
    5982.00094    15730.6000     6170.0000    17443.4000
    5982.20018    15736.6000     6171.0000    17449.4000
    5982.39944    15733.6000     6171.0000    17448.4000
    5982.59871    15741.6000     6175.0000    17452.4000
    5982.80155    15747.6000     6176.0000    17457.4000
    5983.00084    15753.6000     6174.0000    17447.4000
    5983.20015    15754.6000     6175.0000    17456.4000
    5983.39947    15754.6000     6177.0000    17469.4000
    5983.59880    15766.6000     6176.0000    17462.4000
    5983.80171    15766.6000     6179.0000    17463.4000
    5984.00107    15767.6000     6175.0000    17473.4000
    5984.20044    15776.6000     6178.0000    17471.4000
    5984.39983    15783.6000     6182.0000    17474.4000
    5984.59923    15784.6000     6181.0000    17472.4000
    5984.79864    15787.6000     6180.0000    17459.4000
    5985.00163    15792.6000     6182.0000    17475.4000
    5985.20107    15800.6000     6180.0000    17467.4000
    5985.40052    15805.6000     6182.0000    17470.4000
    5985.59999    15808.6000     6183.0000    17461.4000
    5985.79947    15811.6000     6179.0000    17470.4000
    5985.99896    15814.6000     6182.0000    17468.4000
    5986.19846    15822.6000     6180.0000    17462.4000
    5986.40154    15827.6000     6177.0000    17468.4000
    5986.60107    15828.6000     6173.0000    17454.4000
    5986.80062    15833.6000     6173.0000    17437.4000
    5987.00017    15837.6000     6168.0000    17423.4000
    5987.19974    15840.6000     6162.0000    17418.4000
    5987.39933    15845.6000     6157.0000    17397.4000
    5987.59892    15851.6000     6148.0000    17362.4000
    5987.79853    15860.6000     6136.0000    17340.4000
    5988.00172    15870.6000     6123.0000    17304.4000
    5988.20136    15874.6000     6103.0000    17245.4000
    5988.40100    15870.6000     6075.0000    17166.4000
    5988.60067    15879.6000     6048.0000    17081.4000
    5988.80034    15877.6000     6005.0000    16945.4000
    5989.00003    15886.6000     5938.0000    16778.4000
    5989.19973    15884.6000     5841.0000    16497.4000
    5989.39944    15891.6000     5741.0000    16219.4000
    5989.59917    15898.6000     5650.0000    15956.4000
    5989.79891    15904.6000     5566.0000    15721.4000
    5989.99866    15906.6000     5515.0000    15586.4000
    5990.19843    15912.6000     5471.0000    15452.4000
    5990.40178    15913.6000     5441.0000    15378.4000
    5990.60157    15919.6000     5394.0000    15230.4000
    5990.80137    15922.6000     5354.0000    15108.4000
    5991.00119    15924.6000     5324.0000    15030.4000
    5991.20103    15927.6000     5304.0000    14979.4000
    5991.40087    15933.6000     5275.0000    14893.4000
    5991.60073    15939.6000     5237.0000    14789.4000
    5991.80060    15943.6000     5206.0000    14687.4000
    5992.00048    15948.6000     5174.0000    14620.4000
    5992.20038    15950.6000     5151.0000    14549.4000
    5992.40029    15955.6000     5127.0000    14483.4000
    5992.60021    15963.6000     5102.0000    14410.4000
    5992.80015    15960.6000     5074.0000    14330.4000
    5993.00010    15966.6000     5045.0000    14251.4000
    5993.20006    15977.6000     5026.0000    14195.4000
    5993.40004    15982.6000     5012.0000    14133.4000
    5993.60002    15984.6000     4995.0000    14095.4000
    5993.80003    15989.6000     4983.0000    14078.4000
    5994.00004    15991.6000     4973.0000    14039.4000
    5994.20007    15998.6000     4967.0000    14026.4000
    5994.40011    16007.6000     4961.0000    14008.4000
    5994.60016    16010.6000     4957.0000    14000.4000
    5994.80023    16010.6000     4958.0000    14002.4000
    5995.00031    16016.6000     4961.0000    14007.4000
    5995.20040    16026.6000     4965.0000    14015.4000
    5995.40051    16026.6000     4969.0000    14023.4000
    5995.60063    16031.6000     4974.0000    14038.4000
    5995.80076    16034.6000     4977.0000    14044.4000
    5996.00090    16039.6000     4980.0000    14050.4000
    5996.20106    16040.6000     4980.0000    14048.4000
    5996.40123    16046.6000     4979.0000    14044.4000
    5996.60142    16050.6000     4969.0000    14031.4000
    5996.80161    16056.6000     4958.0000    13983.4000
    5996.99825    16062.6000     4937.0000    13925.4000
    5997.19847    16060.6000     4910.0000    13859.4000
    5997.39871    16072.6000     4868.0000    13731.4000
    5997.59896    16070.6000     4837.0000    13641.4000
    5997.79922    16079.6000     4803.0000    13556.4000
    5997.99950    16083.6000     4751.0000    13400.4000
    5998.19978    16085.6000     4711.0000    13283.4000
    5998.40009    16095.6000     4675.0000    13182.4000
    5998.60040    16095.6000     4640.0000    13087.4000
    5998.80073    16097.6000     4603.0000    12980.4000
    5999.00107    16095.6000     4567.0000    12888.4000
    5999.20142    16104.6000     4533.0000    12792.4000
    5999.40179    16104.6000     4495.0000    12684.4000
    5999.59859    16113.6000     4447.0000    12538.4000
    5999.79898    16114.6000     4413.0000    12452.4000
    5999.99939    16124.6000     4386.0000    12363.4000
    6000.19981    16127.6000     4354.0000    12273.4000
    6000.40024    16125.6000     4324.0000    12203.4000
    6000.60068    16133.6000     4296.0000    12100.4000
    6000.80114    16135.6000     4265.0000    12037.4000
    6001.00161    16142.6000     4238.0000    11948.4000
    6001.19852    16139.6000     4215.0000    11896.4000
    6001.39901    16148.6000     4193.0000    11817.4000
    6001.59952    16150.6000     4174.0000    11771.4000
    6001.80005    16155.6000     4154.0000    11700.4000
    6002.00058    16156.6000     4138.0000    11662.4000
    6002.20113    16163.6000     4122.0000    11623.4000
    6002.40169    16170.6000     4105.0000    11568.4000
    6002.59869    16168.6000     4088.0000    11526.4000
    6002.79927    16173.6000     4073.0000    11476.4000
    6002.99987    16177.6000     4056.0000    11428.4000
    6003.20049    16183.6000     4037.0000    11387.4000
    6003.40112    16190.6000     4026.0000    11355.4000
    6003.60176    16194.6000     4016.0000    11324.4000
    6003.79883    16197.6000     4005.0000    11291.4000
    6003.99949    16202.6000     3989.0000    11242.4000
    6004.20017    16204.6000     3978.0000    11204.4000
    6004.40086    16209.6000     3958.0000    11154.4000
    6004.60157    16211.6000     3943.0000    11101.4000
    6004.79870    16213.6000     3938.0000    11101.4000
    6004.99943    16220.6000     3928.0000    11068.4000
    6005.20018    16227.6000     3913.0000    11027.4000
    6005.40093    16225.6000     3897.0000    10984.4000
    6005.60170    16233.6000     3885.0000    10939.4000
    6005.79890    16239.6000     3869.0000    10905.4000
    6005.99970    16238.6000     3857.0000    10863.4000
    6006.20050    16242.6000     3846.0000    10832.4000
    6006.40133    16246.6000     3832.0000    10788.4000
    6006.59858    16246.6000     3819.0000    10763.4000
    6006.79942    16250.6000     3803.0000    10722.4000
    6007.00028    16259.6000     3792.0000    10683.4000
    6007.20116    16264.6000     3778.0000    10651.4000
    6007.39846    16266.6000     3768.0000    10613.4000
    6007.59936    16271.6000     3755.0000    10583.4000
    6007.80027    16272.6000     3743.0000    10544.4000
    6008.00120    16278.6000     3724.0000    10499.4000
    6008.19855    16281.6000     3710.0000    10444.4000
    6008.39950    16291.6000     3691.0000    10400.4000
    6008.60046    16295.6000     3674.0000    10352.4000
    6008.80144    16295.6000     3663.0000    10321.4000
    6008.99884    16300.6000     3653.0000    10292.4000
    6009.19985    16307.6000     3646.0000    10275.4000
    6009.40086    16303.6000     3642.0000    10266.4000
    6009.59830    16305.6000     3643.0000    10253.4000
    6009.79934    16313.6000     3644.0000    10277.4000
    6010.00040    16321.6000     3655.0000    10286.4000
    6010.20147    16324.6000     3661.0000    10306.4000
    6010.39896    16328.6000     3677.0000    10357.4000
    6010.60005    16334.6000     3697.0000    10404.4000
    6010.80116    16343.6000     3719.0000    10472.4000
    6010.99869    16342.6000     3737.0000    10523.4000
    6011.19982    16351.6000     3760.0000    10595.4000
    6011.40097    16349.6000     3788.0000    10663.4000
    6011.59854    16353.6000     3801.0000    10703.4000
    6011.79971    16360.6000     3823.0000    10752.4000
    6012.00090    16361.6000     3846.0000    10829.4000
    6012.19850    16368.6000     3871.0000    10899.4000
    6012.39971    16375.6000     3892.0000    10956.4000
    6012.60094    16381.6000     3919.0000    11036.4000
    6012.79858    16382.6000     3935.0000    11074.4000
    6012.99983    16385.6000     3952.0000    11119.4000
    6013.20109    16391.6000     3966.0000    11161.4000
    6013.39877    16396.6000     3981.0000    11202.4000
    6013.60006    16400.6000     3991.0000    11239.4000
    6013.80136    16402.6000     3999.0000    11268.4000
    6013.99908    16410.6000     4008.0000    11282.4000
    6014.20041    16413.6000     4013.0000    11292.4000
    6014.40175    16425.6000     4019.0000    11313.4000
    6014.59951    16418.6000     4019.0000    11319.4000
    6014.80088    16428.6000     4021.0000    11325.4000
    6014.99866    16436.6000     4022.0000    11317.4000
    6015.20005    16438.6000     4016.0000    11304.4000
    6015.40146    16443.6000     4014.0000    11297.4000
    6015.59928    16449.6000     4008.0000    11283.4000
    6015.80071    16450.6000     4005.0000    11274.4000
    6015.99856    16455.6000     3995.0000    11253.4000
    6016.20002    16463.6000     3989.0000    11224.4000
    6016.40149    16469.6000     3985.0000    11212.4000
    6016.59937    16469.6000     3978.0000    11199.4000
    6016.80087    16476.6000     3970.0000    11166.4000
    6016.99878    16480.6000     3959.0000    11148.4000
    6017.20030    16479.6000     3949.0000    11116.4000
    6017.39824    16487.6000     3942.0000    11092.4000
    6017.59978    16487.6000     3935.0000    11066.4000
    6017.80134    16500.6000     3926.0000    11043.4000
    6017.99932    16500.6000     3917.0000    11025.4000
    6018.20090    16503.6000     3911.0000    11011.4000
    6018.39890    16506.6000     3905.0000    10994.4000
    6018.60052    16513.6000     3900.0000    10975.4000
    6018.79854    16520.6000     3895.0000    10960.4000
    6021.17582    16547.6000     3918.0000    11029.4000
    6023.42870    16593.6000     3975.0000    11203.4000
    6025.75898    16633.6000     3943.0000    11122.4000
    6028.16322    16684.6000     3896.0000    11004.4000
    6030.64520    16734.6000     3872.0000    10944.4000
    6033.20148    16775.6000     3878.0000    10963.4000
    6035.83585    16832.6000     3882.0000    10972.4000
    6038.54489    16876.6000     3864.0000    10922.4000
    6041.32878    16931.6000     3887.0000    11011.4000
    6044.19134    16988.6000     3940.0000    11177.4000
    6047.12914    17035.6000     3989.0000    11324.4000
    6050.14602    17093.6000     4084.0000    11608.4000
    6053.23491    17147.6000     4197.0000    11925.4000
    6056.40330    17205.6000     4282.0000    12197.4000
    6059.64778    17232.6000     4331.0000    12350.4000
    6062.96490    17286.6000     4322.0000    12340.4000
    6066.36220    17354.6000     4263.0000    12172.4000
    6069.83259    17405.6000     4174.0000    11928.4000
    6073.37997    17424.6000     4178.0000    11955.4000
    6077.00457    17518.6000     4312.0000    12351.4000
    6080.70663    17591.6000     4461.0000    12780.4000
    6084.48273    17654.6000     4575.0000    13129.4000
    6088.33311    17727.6000     4544.0000    13055.4000
    6092.26169    17712.6000     4357.0000    12531.4000
    6096.26875    16639.6000     3930.0000    11326.4000
    6100.35085    17976.6000     4181.0000    12057.4000
    6104.50825    18024.6000     4308.0000    12444.4000
    6108.74122    17135.6000     4285.0000    12400.4000
    6113.05002    18248.6000     4728.0000    13693.4000
    6117.43863    18341.6000     4797.0000    13912.4000
    6121.89991    13949.6000     3634.0000    10556.4000
    6126.43785    18439.6000     4823.0000    14034.4000
    6131.05273    18410.6000     4882.0000    14228.4000
    6135.74483    18567.6000     4961.0000    14468.4000
    6140.51071    18667.6000     4976.0000    14543.4000
    6145.35440    18772.6000     4982.0000    14574.4000
    6150.27243    18869.6000     4954.0000    14523.4000
    6155.26887    18958.6000     4966.0000    14570.4000
    6160.34024    19068.6000     4931.0000    14485.4000
    6165.49062    19117.6000     4871.0000    14334.4000
    6170.71278    19190.6000     4960.0000    14618.4000
    6176.01455    19046.6000     5057.0000    14911.4000
    6181.39247    19318.6000     5243.0000    15501.4000
    6186.84307    19293.6000     5302.0000    15707.4000
    6192.37423    19594.6000     5419.0000    16083.4000
    6197.97868    19658.6000     5477.0000    16277.4000
    6203.66053    19880.6000     5579.0000    16597.4000
    6209.41630    19896.6000     5645.0000    16822.4000
    6215.25009    20014.6000     5741.0000    17152.4000
    6221.16226    20132.6000     5773.0000    17261.4000
    6227.14929    19724.6000     5605.0000    16795.4000
    6233.21151    20331.6000     5703.0000    17125.4000
