XDAC V1.4 Datafile V1
"v2o5.005" created on 10/28/08 at 11:02:20 AM on X-23A2
Diffraction element= Si (311).  Ring energy= 2.80 GeV
E0= 5465.00
NUM_REGIONS= 3
SRB= -150 -20 30 8k
SRSS= 10 0.2 0.1k
SPP= 1 1 1
Settling time= 0.50


Offsets= 120.00 51.20 93.40
Gains= 9.00 10.00 10.00
V2O5 powder on kapton tape, 5 layers
slits 1 mm tall, mirror at 0.24 deg
~40% N2 rest Ne in I00, I0, and It
--------------------------------------------------------------------------------
        Energy            I0            It            Ir
    5315.00005    10595.0000     6018.8000      859.6000
    5324.99908    10774.0000     6228.8000      894.6000
    5334.99867    10969.0000     6461.8000      937.6000
    5345.00069    11166.0000     6708.8000      977.6000
    5354.99886    11356.0000     6947.8000     1021.6000
    5365.00051    11559.0000     7207.8000     1068.6000
    5374.99936    11792.0000     7497.8000     1116.6000
    5385.00010    11998.0000     7756.8000     1164.6000
    5394.99917    12208.0000     8031.8000     1216.6000
    5405.00135    12436.0000     8340.8000     1272.6000
    5415.00031    12658.0000     8654.8000     1331.6000
    5425.00087    12871.0000     8947.8000     1388.6000
    5434.99948    13092.0000     9267.8000     1446.6000
    5445.00107    13304.0000     9579.8000     1507.6000
    5445.20099    13314.0000     9589.8000     1512.6000
    5445.40094    13315.0000     9602.8000     1508.6000
    5445.60090    13319.0000     9598.8000     1507.6000
    5445.80089    13319.0000     9597.8000     1512.6000
    5446.00090    13326.0000     9613.8000     1512.6000
    5446.20092    13332.0000     9622.8000     1514.6000
    5446.40097    13331.0000     9622.8000     1513.6000
    5446.60104    13337.0000     9615.8000     1517.6000
    5446.80112    13344.0000     9629.8000     1514.6000
    5447.00123    13344.0000     9632.8000     1515.6000
    5447.20136    13344.0000     9646.8000     1521.6000
    5447.39865    13350.0000     9643.8000     1520.6000
    5447.59881    13354.0000     9645.8000     1519.6000
    5447.79900    13353.0000     9657.8000     1518.6000
    5447.99921    13361.0000     9667.8000     1521.6000
    5448.19944    13362.0000     9670.8000     1523.6000
    5448.39969    13366.0000     9677.8000     1524.6000
    5448.59996    13374.0000     9678.8000     1527.6000
    5448.80025    13375.0000     9689.8000     1527.6000
    5449.00056    13375.0000     9698.8000     1525.6000
    5449.20089    13381.0000     9702.8000     1526.6000
    5449.40124    13388.0000     9704.8000     1529.6000
    5449.59875    13388.0000     9711.8000     1530.6000
    5449.79914    13396.0000     9717.8000     1531.6000
    5449.99955    13399.0000     9719.8000     1533.6000
    5450.19999    13400.0000     9729.8000     1534.6000
    5450.40044    13408.0000     9737.8000     1537.6000
    5450.60091    13408.0000     9734.8000     1538.6000
    5450.80140    13415.0000     9743.8000     1536.6000
    5450.99905    13412.0000     9747.8000     1538.6000
    5451.19959    13415.0000     9754.8000     1540.6000
    5451.40014    13425.0000     9765.8000     1540.6000
    5451.60071    13429.0000     9766.8000     1540.6000
    5451.80131    13434.0000     9774.8000     1542.6000
    5451.99906    13437.0000     9775.8000     1544.6000
    5452.19969    13441.0000     9778.8000     1544.6000
    5452.40035    13448.0000     9791.8000     1546.6000
    5452.60102    13447.0000     9800.8000     1548.6000
    5452.79885    13451.0000     9805.8000     1548.6000
    5452.99957    13455.0000     9813.8000     1547.6000
    5453.20030    13462.0000     9822.8000     1550.6000
    5453.40106    13467.0000     9821.8000     1551.6000
    5453.59897    13465.0000     9828.8000     1554.6000
    5453.79976    13474.0000     9833.8000     1555.6000
    5454.00058    13479.0000     9847.8000     1555.6000
    5454.20142    13484.0000     9845.8000     1556.6000
    5454.39941    13489.0000     9857.8000     1555.6000
    5454.60028    13489.0000     9863.8000     1556.6000
    5454.80118    13495.0000     9865.8000     1558.6000
    5454.99923    13502.0000     9883.8000     1560.6000
    5455.20017    13506.0000     9888.8000     1560.6000
    5455.40113    13512.0000     9895.8000     1560.6000
    5455.59924    13512.0000     9897.8000     1562.6000
    5455.80023    13513.0000     9907.8000     1561.6000
    5456.00125    13515.0000     9900.8000     1564.6000
    5456.19942    13525.0000     9916.8000     1565.6000
    5456.40048    13530.0000     9915.8000     1567.6000
    5456.59869    13539.0000     9927.8000     1566.6000
    5456.79979    13540.0000     9933.8000     1568.6000
    5457.00091    13545.0000     9947.8000     1567.6000
    5457.19918    13547.0000     9953.8000     1568.6000
    5457.40034    13553.0000     9951.8000     1569.6000
    5457.59865    13559.0000     9959.8000     1571.6000
    5457.79985    13564.0000     9953.8000     1572.6000
    5458.00107    13567.0000     9974.8000     1572.6000
    5458.19944    13569.0000     9981.8000     1573.6000
    5458.40070    13571.0000     9975.8000     1571.6000
    5458.59911    13576.0000     9974.8000     1572.6000
    5458.80041    13583.0000     9986.8000     1574.6000
    5458.99886    13583.0000     9997.8000     1573.6000
    5459.20020    13590.0000    10000.8000     1575.6000
    5459.39869    13597.0000    10014.8000     1580.6000
    5459.60007    13605.0000    10009.8000     1574.6000
    5459.79859    13607.0000    10028.8000     1575.6000
    5460.00002    13614.0000    10028.8000     1578.6000
    5460.19859    13616.0000    10036.8000     1574.6000
    5460.40005    13622.0000    10036.8000     1576.6000
    5460.59866    13624.0000    10052.8000     1580.6000
    5460.80016    13632.0000    10056.8000     1576.6000
    5460.99881    13637.0000    10062.8000     1577.6000
    5461.20035    13643.0000    10058.8000     1575.6000
    5461.39904    13648.0000    10070.8000     1570.6000
    5461.60062    13653.0000    10072.8000     1573.6000
    5461.79935    13653.0000    10082.8000     1568.6000
    5462.00097    13661.0000    10102.8000     1563.6000
    5462.19974    13664.0000    10092.8000     1558.6000
    5462.40141    13668.0000    10103.8000     1557.6000
    5462.60021    13674.0000    10104.8000     1546.6000
    5462.79904    13681.0000    10110.8000     1536.6000
    5463.00076    13686.0000    10114.8000     1521.6000
    5463.19963    13685.0000    10122.8000     1490.6000
    5463.40139    13691.0000    10126.8000     1448.6000
    5463.60030    13699.0000    10123.8000     1388.6000
    5463.79922    13703.0000    10132.8000     1319.6000
    5464.00105    13705.0000    10128.8000     1272.6000
    5464.20002    13711.0000    10128.8000     1239.6000
    5464.39900    13713.0000    10132.8000     1229.6000
    5464.60089    13717.0000    10137.8000     1240.6000
    5464.79991    13723.0000    10137.8000     1260.6000
    5464.99896    13732.0000    10116.8000     1276.6000
    5465.20091    13735.0000    10117.8000     1286.6000
    5465.39999    13740.0000    10111.8000     1291.6000
    5465.59909    13744.0000    10101.8000     1292.6000
    5465.80110    13750.0000    10082.8000     1291.6000
    5466.00024    13756.0000    10034.8000     1284.6000
    5466.19941    13756.0000     9977.8000     1263.6000
    5466.39859    13768.0000     9962.8000     1251.6000
    5466.60068    13770.0000     9960.8000     1233.6000
    5466.79990    13774.0000     9928.8000     1223.6000
    5466.99915    13780.0000     9861.8000     1201.6000
    5467.20130    13783.0000     9791.8000     1179.6000
    5467.40058    13783.0000     9724.8000     1165.6000
    5467.59988    13793.0000     9619.8000     1138.6000
    5467.79920    13797.0000     9460.8000     1108.6000
    5468.00143    13808.0000     9234.8000     1074.6000
    5468.20079    13805.0000     9009.8000     1039.6000
    5468.40018    13808.0000     8792.8000     1010.6000
    5468.59958    13815.0000     8572.8000      978.6000
    5468.79900    13822.0000     8331.8000      944.6000
    5469.00133    13824.0000     8277.8000      930.6000
    5469.20079    13832.0000     8393.8000      945.6000
    5469.40027    13836.0000     8582.8000      969.6000
    5469.59977    13836.0000     8790.8000      985.6000
    5469.79929    13845.0000     8921.8000      999.6000
    5469.99883    13849.0000     9042.8000     1012.6000
    5470.20129    13854.0000     9173.8000     1023.6000
    5470.40087    13860.0000     9290.8000     1036.6000
    5470.60046    13860.0000     9398.8000     1046.6000
    5470.80008    13866.0000     9488.8000     1058.6000
    5470.99972    13872.0000     9560.8000     1062.6000
    5471.19938    13878.0000     9637.8000     1066.6000
    5471.39906    13886.0000     9712.8000     1067.6000
    5471.59876    13884.0000     9753.8000     1066.6000
    5471.80137    13893.0000     9787.8000     1063.6000
    5472.00111    13896.0000     9838.8000     1058.6000
    5472.20087    13902.0000     9885.8000     1049.6000
    5472.40065    13905.0000     9935.8000     1038.6000
    5472.60045    13912.0000     9974.8000     1024.6000
    5472.80027    13921.0000    10010.8000     1018.6000
    5473.00010    13926.0000    10020.8000     1015.6000
    5473.19996    13924.0000    10043.8000     1005.6000
    5473.39984    13927.0000    10062.8000      995.6000
    5473.59973    13938.0000    10081.8000      982.6000
    5473.79965    13941.0000    10096.8000      972.6000
    5473.99959    13943.0000    10092.8000      966.6000
    5474.19954    13945.0000    10083.8000      954.6000
    5474.39952    13952.0000    10088.8000      948.6000
    5474.59952    13952.0000    10071.8000      939.6000
    5474.79953    13960.0000    10050.8000      927.6000
    5474.99957    13965.0000    10038.8000      920.6000
    5475.19962    13969.0000    10030.8000      910.6000
    5475.39970    13977.0000    10011.8000      905.6000
    5475.59979    13984.0000     9993.8000      898.6000
    5475.79991    13987.0000     9977.8000      891.6000
    5476.00004    13993.0000     9947.8000      883.6000
    5476.20020    13994.0000     9933.8000      874.6000
    5476.40037    13994.0000     9888.8000      867.6000
    5476.60057    13999.0000     9846.8000      854.6000
    5476.80078    14003.0000     9810.8000      847.6000
    5477.00101    14007.0000     9741.8000      838.6000
    5477.20127    14012.0000     9686.8000      823.6000
    5477.39864    14019.0000     9618.8000      816.6000
    5477.59893    14025.0000     9485.8000      792.6000
    5477.79924    14036.0000     9420.8000      783.6000
    5477.99958    14037.0000     9355.8000      772.6000
    5478.19993    14042.0000     9280.8000      763.6000
    5478.40030    14050.0000     9211.8000      752.6000
    5478.60069    14053.0000     9136.8000      739.6000
    5478.80110    14062.0000     9067.8000      728.6000
    5478.99863    14064.0000     8989.8000      723.6000
    5479.19908    14067.0000     8913.8000      709.6000
    5479.39955    14071.0000     8828.8000      698.6000
    5479.60004    14074.0000     8742.8000      689.6000
    5479.80055    14088.0000     8682.8000      680.6000
    5480.00108    14086.0000     8610.8000      674.6000
    5480.19873    14094.0000     8552.8000      667.6000
    5480.39930    14092.0000     8493.8000      660.6000
    5480.59989    14091.0000     8433.8000      653.6000
    5480.80050    14100.0000     8372.8000      646.6000
    5481.00112    14102.0000     8323.8000      639.6000
    5481.19887    14102.0000     8292.8000      634.6000
    5481.39953    14108.0000     8267.8000      629.6000
    5481.60022    14113.0000     8193.8000      622.6000
    5481.80093    14113.0000     8122.8000      612.6000
    5481.99875    14124.0000     8046.8000      606.6000
    5482.19950    14126.0000     7935.8000      591.6000
    5482.40026    14138.0000     7840.8000      587.6000
    5482.60105    14138.0000     7743.8000      583.6000
    5482.79895    14146.0000     7652.8000      573.6000
    5482.99977    14146.0000     7559.8000      568.6000
    5483.20062    14152.0000     7484.8000      565.6000
    5483.39857    14155.0000     7433.8000      561.6000
    5483.59946    14159.0000     7352.8000      559.6000
    5483.80036    14163.0000     7279.8000      559.6000
    5484.00129    14169.0000     7220.8000      557.6000
    5484.19932    14179.0000     7173.8000      555.6000
    5484.40029    14183.0000     7111.8000      552.6000
    5484.60127    14183.0000     7081.8000      556.6000
    5484.79936    14186.0000     7046.8000      556.6000
    5485.00039    14194.0000     7028.8000      560.6000
    5485.20143    14200.0000     7024.8000      561.6000
    5485.39958    14206.0000     7013.8000      562.6000
    5485.60066    14209.0000     7011.8000      567.6000
    5485.79885    14210.0000     7015.8000      570.6000
    5485.99997    14218.0000     7033.8000      573.6000
    5486.20111    14222.0000     7034.8000      577.6000
    5486.39936    14224.0000     7058.8000      578.6000
    5486.60054    14233.0000     7082.8000      583.6000
    5486.79883    14235.0000     7095.8000      586.6000
    5487.00005    14241.0000     7110.8000      585.6000
    5487.20129    14245.0000     7121.8000      585.6000
    5487.39963    14249.0000     7135.8000      588.6000
    5487.60091    14256.0000     7143.8000      590.6000
    5487.79929    14256.0000     7141.8000      589.6000
    5488.00061    14265.0000     7135.8000      585.6000
    5488.19903    14265.0000     7129.8000      584.6000
    5488.40039    14273.0000     7100.8000      584.6000
    5488.59885    14280.0000     7070.8000      580.6000
    5488.80025    14287.0000     7045.8000      573.6000
    5488.99875    14288.0000     7013.8000      569.6000
    5489.20019    14290.0000     6998.8000      568.6000
    5489.39872    14297.0000     6976.8000      562.6000
    5489.60020    14299.0000     6951.8000      558.6000
    5489.79878    14306.0000     6946.8000      559.6000
    5490.00029    14316.0000     6941.8000      556.6000
    5490.19891    14318.0000     6922.8000      553.6000
    5490.40046    14326.0000     6913.8000      553.6000
    5490.59912    14330.0000     6898.8000      548.6000
    5490.80071    14341.0000     6898.8000      548.6000
    5490.99940    14341.0000     6887.8000      545.6000
    5491.20104    14275.0000     6844.8000      537.6000
    5491.39977    14122.0000     6768.8000      531.6000
    5491.60144    13979.0000     6676.8000      524.6000
    5491.80021    13921.0000     6622.8000      523.6000
    5491.99900    13959.0000     6611.8000      525.6000
    5492.20074    14134.0000     6692.8000      531.6000
    5492.39956    14287.0000     6756.8000      531.6000
    5492.60134    14310.0000     6771.8000      534.6000
    5492.80020    14324.0000     6786.8000      535.6000
    5492.99909    14336.0000     6790.8000      536.6000
    5493.20092    14340.0000     6816.8000      541.6000
    5493.39985    14346.0000     6822.8000      542.6000
    5493.59879    14352.0000     6848.8000      547.6000
    5493.80068    14359.0000     6882.8000      548.6000
    5493.99966    14366.0000     6905.8000      553.6000
    5494.19867    14371.0000     6925.8000      556.6000
    5494.40061    14383.0000     6949.8000      555.6000
    5494.59966    14385.0000     6980.8000      560.6000
    5494.79872    14390.0000     7002.8000      563.6000
    5497.17722    14458.0000     7225.8000      577.6000
    5499.42938    14514.0000     7349.8000      575.6000
    5501.75742    14490.0000     7304.8000      569.6000
    5504.16161    14591.0000     7254.8000      563.6000
    5506.64219    14658.0000     7346.8000      566.6000
    5509.20238    14716.0000     7575.8000      577.6000
    5511.83361    14785.0000     7802.8000      596.6000
    5514.54500    14843.0000     8043.8000      622.6000
    5517.33094    14917.0000     8222.8000      645.6000
    5520.19170    14982.0000     8322.8000      664.6000
    5523.13055    15056.0000     8384.8000      686.6000
    5526.14483    15126.0000     8500.8000      710.6000
    5529.23484    15203.0000     8635.8000      729.6000
    5532.40387    15275.0000     8773.8000      739.6000
    5535.64629    15352.0000     8870.8000      729.6000
    5538.96541    15427.0000     8927.8000      721.6000
    5542.36156    15516.0000     8999.8000      734.6000
    5545.83209    15599.0000     9050.8000      762.6000
    5549.38032    15677.0000     9133.8000      789.6000
    5553.00363    15761.0000     9218.8000      799.6000
    5556.70535    15847.0000     9306.8000      778.6000
    5560.48286    15932.0000     9409.8000      755.6000
    5564.33349    15848.0000     9380.8000      740.6000
    5568.26364    16107.0000     9586.8000      766.6000
    5572.26765    16214.0000     9696.8000      809.6000
    5576.34892    15768.0000     9524.8000      821.6000
    5580.50785    16411.0000     9981.8000      879.6000
    5584.74177    16510.0000    10137.8000      891.6000
    5589.05107    16617.0000    10364.8000      913.6000
    5593.43614    16732.0000    10577.8000      947.6000
    5597.90046    16836.0000    10734.8000      969.6000
    5602.43829    16950.0000    10893.8000      982.6000
    5607.05310    17069.0000    11097.8000      992.6000
    5611.74223    17181.0000    11275.8000      998.6000
    5616.51228    17310.0000    11405.8000     1005.6000
    5621.35437    17420.0000    11545.8000     1006.6000
    5626.27513    17545.0000    11707.8000     1011.6000
    5631.26876    17669.0000    11889.8000     1052.6000
    5636.34192    17807.0000    12103.8000     1097.6000
    5641.48880    17935.0000    12308.8000     1134.6000
    5646.71295    18057.0000    12539.8000     1168.6000
    5652.01482    18194.0000    12785.8000     1204.6000
    5657.39170    18325.0000    12984.8000     1233.6000
    5662.84403    18467.0000    13202.8000     1265.6000
    5668.37224    18627.0000    13415.8000     1303.6000
    5673.97995    18761.0000    13615.8000     1324.6000
    5679.66127    18909.0000    13865.8000     1340.6000
    5685.41663    19056.0000    14132.8000     1357.6000
    5691.25286    19204.0000    14398.8000     1369.6000
    5697.16082    19357.0000    14686.8000     1391.6000
    5703.14737    19508.0000    14961.8000     1439.6000
    5709.20975    19671.0000    15251.8000     1503.6000
