XDAC V1.4 Datafile V1
"re4chan.000" created on 8/19/09 at 2:55:11 PM on X-23A2
Diffraction element= Si (311).  Ring energy= 2.80 GeV
E0= 10535.00
NUM_REGIONS= 4
SRB= -200 -20 30 60 15k
SRSS= 10 0.4 0.05k 0.05k
SPP= 1 1 1 0.25k
Settling time= 0.50


Offsets= 117.50 82.75 122.00 107.00 961.00 1596.50 1377.75 66.25 10.25 0.00 0.00
Gains= 8.00 8.00 8.00 8.00 7.00 7.00 7.00 7.00 9.00 0.00 1.00
4 channel ion chambers
1: Re powder  2: NH4ReO4  3: ReO3  4: ReO2
50/50 Ar/N2 in I0; Ar in It
--------------------------------------------------------------------------------
        Energy            I0           I02           I03           I04           It1           It2           It3           It4          Iref          temp       IntTime
   10334.99870    13720.5000    14600.2500     8839.0000    13071.0000     2864.0000     5182.5000     5645.2500     3671.7500       72.7500        0.0000        1.0000
   10345.00272    13228.5000    14209.2500     8768.0000    12976.0000     2776.0000     5068.5000     5625.2500     3669.7500       73.7500        0.0000        1.0000
   10354.99923    13757.5000    14609.2500     8827.0000    13012.0000     2900.0000     5232.5000     5686.2500     3698.7500       74.7500        0.0000        1.0000
   10365.00040    13769.5000    14613.2500     8823.0000    12999.0000     2925.0000     5266.5000     5725.2500     3725.7500       75.7500        0.0000        1.0000
   10375.00012    13743.5000    14580.2500     8800.0000    12956.0000     2932.0000     5271.5000     5724.2500     3724.7500       76.7500        0.0000        1.0000
   10384.99837    13740.5000    14577.2500     8796.0000    12947.0000     2954.0000     5305.5000     5763.2500     3753.7500       77.7500        0.0000        1.0000
   10395.00123    13691.5000    14515.2500     8756.0000    12880.0000     2960.0000     5312.5000     5767.2500     3760.7500       77.7500        0.0000        1.0000
   10405.00259    13710.5000    14542.2500     8771.0000    12898.0000     2983.0000     5349.5000     5806.2500     3786.7500       79.7500        0.0000        1.0000
   10415.00243    13678.5000    14485.2500     8727.0000    12812.0000     2993.0000     5353.5000     5803.2500     3787.7500       79.7500        0.0000        1.0000
   10425.00074    13658.5000    14464.2500     8711.0000    12785.0000     3006.0000     5374.5000     5825.2500     3803.7500       81.7500        0.0000        1.0000
   10434.99749    13638.5000    14441.2500     8694.0000    12753.0000     3016.0000     5389.5000     5839.2500     3815.7500       81.7500        0.0000        1.0000
   10444.99878    13655.5000    14458.2500     8703.0000    12766.0000     3042.0000     5427.5000     5879.2500     3845.7500       82.7500        0.0000        1.0000
   10454.99849    13538.5000    14280.2500     8613.0000    12664.0000     3031.0000     5388.5000     5844.2500     3837.7500       82.7500        0.0000        1.0000
   10465.00271    13670.5000    14472.2500     8707.0000    12760.0000     3074.0000     5487.5000     5938.2500     3888.7500       85.7500        0.0000        1.0000
   10474.99920    13593.5000    14391.2500     8661.0000    12695.0000     3068.0000     5474.5000     5926.2500     3882.7500       84.7500        0.0000        1.0000
   10485.00017    13505.5000    14390.2500     8665.0000    12703.0000     3057.0000     5492.5000     5949.2500     3896.7500       84.7500        0.0000        1.0000
   10494.99949    13567.5000    14373.2500     8652.0000    12669.0000     3063.0000     5481.5000     5939.2500     3882.7500       84.7500        0.0000        1.0000
   10504.99713    13546.5000    14343.2500     8630.0000    12645.0000     3024.0000     5432.5000     5888.2500     3835.7500       82.7500        0.0000        1.0000
   10514.99923    13557.5000    14340.2500     8618.0000    12605.0000     2964.0000     5386.5000     5838.2500     3756.7500       77.7500        0.0000        1.0000
   10515.39818    13542.5000    14345.2500     8631.0000    12639.0000     2951.0000     5378.5000     5834.2500     3753.7500       76.7500        0.0000        1.0000
   10515.79714    13549.5000    14341.2500     8624.0000    12617.0000     2944.0000     5366.5000     5822.2500     3743.7500       76.7500        0.0000        1.0000
   10516.20224    13531.5000    14329.2500     8621.0000    12627.0000     2935.0000     5356.5000     5814.2500     3737.7500       76.7500        0.0000        1.0000
   10516.60121    13557.5000    14351.2500     8635.0000    12638.0000     2938.0000     5366.5000     5825.2500     3738.7500       76.7500        0.0000        1.0000
   10517.00018    13542.5000    14339.2500     8624.0000    12625.0000     2927.0000     5351.5000     5807.2500     3724.7500       75.7500        0.0000        1.0000
   10517.39917    13540.5000    14331.2500     8622.0000    12620.0000     2920.0000     5342.5000     5800.2500     3720.7500       75.7500        0.0000        1.0000
   10517.79816    13554.5000    14343.2500     8625.0000    12617.0000     2913.0000     5338.5000     5793.2500     3705.7500       74.7500        0.0000        1.0000
   10518.19716    13544.5000    14337.2500     8626.0000    12626.0000     2899.0000     5322.5000     5780.2500     3696.7500       73.7500        0.0000        1.0000
   10518.60230    13549.5000    14342.2500     8630.0000    12630.0000     2898.0000     5326.5000     5784.2500     3696.7500       74.7500        0.0000        1.0000
   10519.00131    13542.5000    14334.2500     8624.0000    12620.0000     2890.0000     5319.5000     5776.2500     3684.7500       73.7500        0.0000        1.0000
   10519.40033    13524.5000    14319.2500     8614.0000    12609.0000     2878.0000     5308.5000     5767.2500     3677.7500       72.7500        0.0000        1.0000
   10519.79936    13531.5000    14320.2500     8616.0000    12608.0000     2869.0000     5297.5000     5749.2500     3659.7500       72.7500        0.0000        1.0000
   10520.19839    13540.5000    14335.2500     8626.0000    12625.0000     2851.0000     5272.5000     5722.2500     3638.7500       71.7500        0.0000        1.0000
   10520.59743    13533.5000    14328.2500     8621.0000    12620.0000     2843.0000     5277.5000     5732.2500     3638.7500       70.7500        0.0000        1.0000
   10521.00262    13543.5000    14340.2500     8629.0000    12633.0000     2838.0000     5275.5000     5731.2500     3633.7500       70.7500        0.0000        1.0000
   10521.40168    13542.5000    14343.2500     8629.0000    12631.0000     2821.0000     5257.5000     5715.2500     3619.7500       69.7500        0.0000        1.0000
   10521.80074    13522.5000    14319.2500     8617.0000    12617.0000     2800.0000     5228.5000     5683.2500     3594.7500       68.7500        0.0000        1.0000
   10522.19981    13553.5000    14350.2500     8632.0000    12630.0000     2802.0000     5249.5000     5703.2500     3594.7500       68.7500        0.0000        1.0000
   10522.59888    13527.5000    14323.2500     8619.0000    12618.0000     2785.0000     5230.5000     5685.2500     3579.7500       67.7500        0.0000        1.0000
   10522.99797    13523.5000    14317.2500     8613.0000    12607.0000     2775.0000     5223.5000     5677.2500     3564.7500       66.7500        0.0000        1.0000
   10523.39706    13536.5000    14333.2500     8625.0000    12624.0000     2758.0000     5209.5000     5659.2500     3545.7500       65.7500        0.0000        1.0000
   10523.80229    13537.5000    14333.2500     8624.0000    12621.0000     2738.0000     5191.5000     5643.2500     3527.7500       64.7500        0.0000        1.0000
   10524.20140    13525.5000    14320.2500     8616.0000    12612.0000     2716.0000     5164.5000     5616.2500     3504.7500       63.7500        0.0000        1.0000
   10524.60051    13554.5000    14353.2500     8635.0000    12636.0000     2704.0000     5161.5000     5610.2500     3489.7500       62.7500        0.0000        1.0000
   10524.99963    13537.5000    14338.2500     8628.0000    12627.0000     2686.0000     5144.5000     5592.2500     3467.7500       61.7500        0.0000        1.0000
   10525.39875    13526.5000    14325.2500     8620.0000    12617.0000     2666.0000     5128.5000     5576.2500     3446.7500       60.7500        0.0000        1.0000
   10525.79789    13536.5000    14332.2500     8624.0000    12623.0000     2644.0000     5111.5000     5560.2500     3424.7500       59.7500        0.0000        1.0000
   10526.19703    13526.5000    14324.2500     8619.0000    12614.0000     2616.0000     5089.5000     5536.2500     3398.7500       57.7500        0.0000        1.0000
   10526.60231    13542.5000    14344.2500     8631.0000    12630.0000     2586.0000     5066.5000     5509.2500     3366.7500       56.7500        0.0000        1.0000
   10527.00147    13546.5000    14346.2500     8630.0000    12628.0000     2560.0000     5047.5000     5486.2500     3337.7500       54.7500        0.0000        1.0000
   10527.40063    13523.5000    14320.2500     8615.0000    12609.0000     2528.0000     5014.5000     5457.2500     3309.7500       53.7500        0.0000        1.0000
   10527.79980    13545.5000    14344.2500     8630.0000    12629.0000     2497.0000     4994.5000     5434.2500     3274.7500       51.7500        0.0000        1.0000
   10528.19897    13508.5000    14304.2500     8606.0000    12595.0000     2449.0000     4941.5000     5378.2500     3225.7500       50.7500        0.0000        1.0000
   10528.59815    13524.5000    14321.2500     8619.0000    12613.0000     2423.0000     4926.5000     5359.2500     3198.7500       48.7500        0.0000        1.0000
   10528.99734    13532.5000    14331.2500     8623.0000    12621.0000     2391.0000     4901.5000     5333.2500     3167.7500       47.7500        0.0000        1.0000
   10529.40268    13540.5000    14340.2500     8629.0000    12626.0000     2343.0000     4871.5000     5300.2500     3122.7500       44.7500        0.0000        1.0000
   10529.80188    13517.5000    14310.2500     8608.0000    12598.0000     2284.0000     4818.5000     5242.2500     3061.7500       42.7500        0.0000        1.0000
   10530.20109    13528.5000    14327.2500     8619.0000    12613.0000     2242.0000     4789.5000     5212.2500     3022.7500       40.7500        0.0000        1.0000
   10530.60031    13545.5000    14347.2500     8632.0000    12632.0000     2201.0000     4760.5000     5178.2500     2981.7500       38.7500        0.0000        1.0000
   10530.99953    13531.5000    14327.2500     8619.0000    12612.0000     2137.0000     4706.5000     5118.2500     2915.7500       36.7500        0.0000        1.0000
   10531.39877    13528.5000    14327.2500     8621.0000    12617.0000     2070.0000     4659.5000     5069.2500     2853.7500       33.7500        0.0000        1.0000
   10531.79800    13535.5000    14336.2500     8625.0000    12620.0000     1994.0000     4602.5000     5004.2500     2777.7500       31.7500        0.0000        1.0000
   10532.19725    13521.5000    14319.2500     8615.0000    12605.0000     1905.0000     4531.5000     4921.2500     2686.7500       27.7500        0.0000        1.0000
   10532.60264    13526.5000    14325.2500     8617.0000    12605.0000     1817.0000     4465.5000     4849.2500     2602.7500       25.7500        0.0000        1.0000
   10533.00190    13510.5000    14308.2500     8610.0000    12598.0000     1721.0000     4390.5000     4764.2500     2507.7500       22.7500        0.0000        1.0000
   10533.40117    13518.5000    14317.2500     8613.0000    12604.0000     1633.0000     4324.5000     4687.2500     2420.7500       20.7500        0.0000        1.0000
   10533.80044    13518.5000    14320.2500     8614.0000    12606.0000     1529.0000     4247.5000     4600.2500     2318.7500       17.7500        0.0000        1.0000
   10534.19973    13512.5000    14310.2500     8606.0000    12596.0000     1399.0000     4145.5000     4482.2500     2186.7500       13.7500        0.0000        1.0000
   10534.59901    13503.5000    14299.2500     8604.0000    12590.0000     1263.0000     4033.5000     4349.2500     2041.7500       11.7500        0.0000        1.0000
   10534.99831    13495.5000    14291.2500     8599.0000    12582.0000     1165.0000     3942.5000     4245.2500     1934.7500        9.7500        0.0000        1.0000
   10535.39761    13519.5000    14318.2500     8611.0000    12597.0000     1053.0000     3839.5000     4122.2500     1805.7500        7.7500        0.0000        1.0000
   10535.80306    13515.5000    14311.2500     8609.0000    12594.0000      931.0000     3720.5000     3982.2500     1661.7500        5.7500        0.0000        1.0000
   10536.20238    13515.5000    14316.2500     8613.0000    12603.0000      818.0000     3603.5000     3843.2500     1520.7500        4.7500        0.0000        1.0000
   10536.60170    13511.5000    14308.2500     8609.0000    12590.0000      696.0000     3452.5000     3658.2500     1348.7500        3.7500        0.0000        1.0000
   10537.00103    13504.5000    14305.2500     8608.0000    12597.0000      568.0000     3259.5000     3430.2500     1149.7500        1.7500        0.0000        1.0000
   10537.40037    13504.5000    14305.2500     8608.0000    12597.0000      459.0000     3051.5000     3178.2500      948.7500        0.7500        0.0000        1.0000
   10537.79971    13502.5000    14302.2500     8603.0000    12585.0000      395.0000     2888.5000     2983.2500      810.7500        0.7500        0.0000        1.0000
   10538.19906    13514.5000    14315.2500     8613.0000    12598.0000      338.0000     2701.5000     2764.2500      671.7500        0.7500        0.0000        1.0000
   10538.59842    13481.5000    14277.2500     8592.0000    12571.0000      287.0000     2485.5000     2515.2500      534.7500       -0.2500        0.0000        1.0000
   10538.99779    13491.5000    14292.2500     8601.0000    12586.0000      247.0000     2246.5000     2246.2500      409.7500       -0.2500        0.0000        1.0000
   10539.39716    13482.5000    14279.2500     8591.0000    12570.0000      213.0000     1962.5000     1940.2500      296.7500       -0.2500        0.0000        1.0000
   10539.80268    13497.5000    14298.2500     8604.0000    12585.0000      192.0000     1674.5000     1651.2500      212.7500       -0.2500        0.0000        1.0000
   10540.20207    13480.5000    14275.2500     8587.0000    12557.0000      179.0000     1415.5000     1411.2500      156.7500       -0.2500        0.0000        1.0000
   10540.60146    13495.5000    14294.2500     8600.0000    12579.0000      173.0000     1211.5000     1238.2500      121.7500       -0.2500        0.0000        1.0000
   10541.00086    13511.5000    14308.2500     8607.0000    12581.0000      172.0000      986.5000     1065.2500       93.7500        0.7500        0.0000        1.0000
   10541.40027    13497.5000    14297.2500     8602.0000    12566.0000      179.0000      760.5000      908.2500       71.7500       -0.2500        0.0000        1.0000
   10541.79968    13481.5000    14280.2500     8591.0000    12549.0000      192.0000      595.5000      807.2500       57.7500       -0.2500        0.0000        1.0000
   10542.19910    13480.5000    14282.2500     8594.0000    12560.0000      209.0000      490.5000      748.2500       50.7500       -0.2500        0.0000        1.0000
   10542.59853    13465.5000    14262.2500     8582.0000    12552.0000      228.0000      418.5000      709.2500       47.7500       -0.2500        0.0000        1.0000
   10542.99797    13474.5000    14271.2500     8582.0000    12565.0000      249.0000      369.5000      684.2500       46.7500       -0.2500        0.0000        1.0000
   10543.39741    13492.5000    14289.2500     8588.0000    12580.0000      278.0000      326.5000      663.2500       49.7500       -0.2500        0.0000        1.0000
   10543.80301    13438.5000    14232.2500     8551.0000    12543.0000      308.0000      302.5000      648.2500       54.7500       -0.2500        0.0000        1.0000
   10544.20246    13465.5000    14255.2500     8559.0000    12554.0000      333.0000      301.5000      647.2500       62.7500       -0.2500        0.0000        1.0000
   10544.60193    13477.5000    14271.2500     8574.0000    12570.0000      362.0000      314.5000      654.2500       74.7500       -0.2500        0.0000        1.0000
   10545.00140    13476.5000    14275.2500     8579.0000    12572.0000      388.0000      345.5000      668.2500       90.7500        0.7500        0.0000        1.0000
   10545.40087    13483.5000    14282.2500     8592.0000    12583.0000      410.0000      388.5000      689.2500      108.7500       -0.2500        0.0000        1.0000
   10545.80036    13484.5000    14279.2500     8592.0000    12577.0000      430.0000      441.5000      716.2500      129.7500       -0.2500        0.0000        1.0000
   10546.19985    13475.5000    14263.2500     8592.0000    12576.0000      455.0000      542.5000      764.2500      165.7500       -0.2500        0.0000        1.0000
   10546.59935    13470.5000    14247.2500     8584.0000    12557.0000      473.0000      633.5000      806.2500      197.7500       -0.2500        0.0000        1.0000
   10546.99886    13458.5000    14232.2500     8580.0000    12556.0000      492.0000      757.5000      867.2500      242.7500        0.7500        0.0000        1.0000
   10547.39837    13436.5000    14210.2500     8566.0000    12539.0000      507.0000      890.5000      934.2500      292.7500        0.7500        0.0000        1.0000
   10547.79789    13476.5000    14262.2500     8591.0000    12573.0000      524.0000     1053.5000     1024.2500      354.7500       -0.2500        0.0000        1.0000
   10548.19741    13467.5000    14262.2500     8585.0000    12559.0000      535.0000     1203.5000     1115.2500      415.7500       -0.2500        0.0000        1.0000
   10548.59695    13446.5000    14250.2500     8576.0000    12554.0000      542.0000     1327.5000     1202.2500      470.7500        0.7500        0.0000        1.0000
   10549.00264    13454.5000    14274.2500     8589.0000    12573.0000      551.0000     1463.5000     1314.2500      535.7500        0.7500        0.0000        1.0000
   10549.40218    13446.5000    14269.2500     8585.0000    12565.0000      559.0000     1571.5000     1426.2500      593.7500        0.7500        0.0000        1.0000
   10549.80174    13450.5000    14275.2500     8588.0000    12569.0000      566.0000     1651.5000     1531.2500      643.7500        0.7500        0.0000        1.0000
   10550.20130    13455.5000    14277.2500     8591.0000    12573.0000      572.0000     1712.5000     1640.2500      686.7500        0.7500        0.0000        1.0000
   10550.60087    13467.5000    14275.2500     8590.0000    12573.0000      579.0000     1764.5000     1776.2500      736.7500        0.7500        0.0000        1.0000
   10551.00045    13469.5000    14271.2500     8587.0000    12570.0000      586.0000     1796.5000     1918.2500      776.7500        0.7500        0.0000        1.0000
   10551.40003    13468.5000    14267.2500     8585.0000    12563.0000      587.0000     1798.5000     2028.2500      804.7500        0.7500        0.0000        1.0000
   10551.79962    13469.5000    14267.2500     8585.0000    12563.0000      589.0000     1799.5000     2144.2500      828.7500        1.7500        0.0000        1.0000
   10552.19922    13478.5000    14279.2500     8592.0000    12574.0000      592.0000     1794.5000     2240.2500      847.7500        0.7500        0.0000        1.0000
   10552.59882    13478.5000    14282.2500     8595.0000    12580.0000      593.0000     1779.5000     2344.2500      863.7500        1.7500        0.0000        1.0000
   10552.99843    13462.5000    14262.2500     8582.0000    12563.0000      593.0000     1751.5000     2449.2500      877.7500        1.7500        0.0000        1.0000
   10553.39805    13445.5000    14242.2500     8569.0000    12544.0000      593.0000     1728.5000     2510.2500      882.7500        1.7500        0.0000        1.0000
   10553.79767    13452.5000    14250.2500     8578.0000    12556.0000      595.0000     1707.5000     2577.2500      889.7500        0.7500        0.0000        1.0000
   10554.19731    13444.5000    14240.2500     8569.0000    12544.0000      598.0000     1683.5000     2629.2500      895.7500        1.7500        0.0000        1.0000
   10554.59694    13444.5000    14241.2500     8571.0000    12551.0000      601.0000     1662.5000     2674.2500      899.7500        0.7500        0.0000        1.0000
   10555.00274    13453.5000    14250.2500     8573.0000    12547.0000      605.0000     1648.5000     2709.2500      905.7500        1.7500        0.0000        1.0000
   10555.40239    13425.5000    14218.2500     8559.0000    12534.0000      610.0000     1639.5000     2740.2500      913.7500        1.7500        0.0000        1.0000
   10555.80205    13458.5000    14256.2500     8578.0000    12558.0000      621.0000     1645.5000     2768.2500      921.7500        1.7500        0.0000        1.0000
   10556.20172    13433.5000    14230.2500     8570.0000    12545.0000      630.0000     1657.5000     2787.2500      929.7500        1.7500        0.0000        1.0000
   10556.60139    13441.5000    14241.2500     8572.0000    12549.0000      638.0000     1670.5000     2796.2500      934.7500        1.7500        0.0000        1.0000
   10557.00107    13439.5000    14237.2500     8570.0000    12549.0000      650.0000     1697.5000     2810.2500      943.7500        1.7500        0.0000        1.0000
   10557.40076    13439.5000    14236.2500     8568.0000    12546.0000      664.0000     1730.5000     2822.2500      955.7500        1.7500        0.0000        1.0000
   10557.80046    13426.5000    14225.2500     8566.0000    12544.0000      676.0000     1764.5000     2829.2500      965.7500        1.7500        0.0000        1.0000
   10558.20016    13448.5000    14246.2500     8571.0000    12541.0000      690.0000     1803.5000     2834.2500      974.7500        2.7500        0.0000        1.0000
   10558.59987    13440.5000    14241.2500     8572.0000    12552.0000      705.0000     1850.5000     2841.2500      988.7500        1.7500        0.0000        1.0000
   10558.99958    13422.5000    14221.2500     8558.0000    12531.0000      714.0000     1886.5000     2842.2500      999.7500        2.7500        0.0000        1.0000
   10559.39931    13438.5000    14238.2500     8569.0000    12545.0000      724.0000     1921.5000     2844.2500     1010.7500        1.7500        0.0000        1.0000
   10559.79904    13443.5000    14242.2500     8570.0000    12547.0000      735.0000     1962.5000     2847.2500     1022.7500        1.7500        0.0000        1.0000
   10560.19877    13442.5000    14241.2500     8571.0000    12547.0000      740.0000     1985.5000     2842.2500     1028.7500        1.7500        0.0000        1.0000
   10560.59852    13432.5000    14232.2500     8565.0000    12540.0000      747.0000     2015.5000     2839.2500     1038.7500        1.7500        0.0000        1.0000
   10560.99827    13445.5000    14246.2500     8574.0000    12550.0000      752.0000     2043.5000     2832.2500     1044.7500        2.7500        0.0000        1.0000
   10561.39803    13429.5000    14223.2500     8560.0000    12534.0000      757.0000     2071.5000     2822.2500     1051.7500        2.7500        0.0000        1.0000
   10561.79779    13432.5000    14234.2500     8567.0000    12542.0000      760.0000     2099.5000     2816.2500     1058.7500        2.7500        0.0000        1.0000
   10562.19756    13434.5000    14230.2500     8564.0000    12540.0000      762.0000     2124.5000     2809.2500     1063.7500        2.7500        0.0000        1.0000
   10562.59734    13434.5000    14233.2500     8564.0000    12537.0000      761.0000     2137.5000     2806.2500     1065.7500        2.7500        0.0000        1.0000
   10562.99713    13422.5000    14224.2500     8561.0000    12537.0000      761.0000     2158.5000     2807.2500     1068.7500        2.7500        0.0000        1.0000
   10563.40307    13421.5000    14219.2500     8556.0000    12522.0000      760.0000     2175.5000     2808.2500     1067.7500        2.7500        0.0000        1.0000
   10563.80287    13407.5000    14203.2500     8548.0000    12516.0000      756.0000     2191.5000     2812.2500     1067.7500        2.7500        0.0000        1.0000
   10564.20268    13407.5000    14209.2500     8553.0000    12525.0000      757.0000     2211.5000     2825.2500     1069.7500        2.7500        0.0000        1.0000
   10564.60249    13418.5000    14220.2500     8558.0000    12531.0000      754.0000     2227.5000     2836.2500     1066.7500        2.7500        0.0000        1.0000
   10566.07879    13419.5000    14213.2500     8552.0000    12517.0000      746.0000     2267.5000     2889.2500     1053.7500        2.7500        0.0000        1.0000
   10567.17377    13413.5000    14209.2500     8549.0000    12513.0000      745.0000     2284.5000     2940.2500     1046.7500        1.7500        0.0000        1.0000
   10568.29342    13404.5000    14198.2500     8543.0000    12503.0000      748.0000     2290.5000     2980.2500     1039.7500        2.7500        0.0000        1.0000
   10569.43157    13425.5000    14226.2500     8560.0000    12525.0000      753.0000     2294.5000     3015.2500     1038.7500        2.7500        0.0000        1.0000
   10570.58208    13419.5000    14222.2500     8558.0000    12527.0000      761.0000     2304.5000     3043.2500     1037.7500        2.7500        0.0000        1.0000
   10571.75727    13424.5000    14225.2500     8559.0000    12526.0000      771.0000     2319.5000     3061.2500     1036.7500        2.7500        0.0000        1.0000
   10572.95098    13423.5000    14225.2500     8558.0000    12523.0000      778.0000     2334.5000     3054.2500     1035.7500        2.7500        0.0000        1.0000
   10574.16320    13416.5000    14217.2500     8554.0000    12520.0000      788.0000     2361.5000     3019.2500     1033.7500        3.7500        0.0000        1.0000
   10575.39396    13424.5000    14229.2500     8562.0000    12533.0000      796.0000     2389.5000     2975.2500     1032.7500        2.7500        0.0000        1.0000
   10576.64324    13424.5000    14220.2500     8553.0000    12519.0000      806.0000     2415.5000     2908.2500     1025.7500        2.7500        0.0000        1.0000
   10577.91106    13427.5000    14230.2500     8561.0000    12525.0000      818.0000     2441.5000     2868.2500     1017.7500        2.7500        0.0000        1.0000
   10579.20356    13428.5000    14226.2500     8558.0000    12519.0000      831.0000     2469.5000     2862.2500     1005.7500        2.7500        0.0000        1.0000
   10580.50845    13419.5000    14213.2500     8546.0000    12500.0000      839.0000     2477.5000     2871.2500      991.7500        2.7500        0.0000        1.0000
   10581.83188    13424.5000    14210.2500     8541.0000    12486.0000      843.0000     2482.5000     2900.2500      971.7500        2.7500        0.0000        1.0000
   10583.18001    13433.5000    14211.2500     8534.0000    12458.0000      843.0000     2481.5000     2912.2500      951.7500        2.7500        0.0000        1.0000
   10584.54668    13451.5000    14234.2500     8546.0000    12464.0000      838.0000     2470.5000     2910.2500      925.7500        2.7500        0.0000        1.0000
   10585.92575    13437.5000    14221.2500     8538.0000    12445.0000      830.0000     2446.5000     2886.2500      900.7500        2.7500        0.0000        1.0000
   10587.32954    13425.5000    14214.2500     8536.0000    12406.0000      820.0000     2417.5000     2847.2500      867.7500        2.7500        0.0000        1.0000
   10588.75188    13425.5000    14208.2500     8526.0000    12167.0000      815.0000     2393.5000     2810.2500      830.7500        1.7500        0.0000        1.0000
   10590.19278    13412.5000    14194.2500     8512.0000    11451.0000      810.0000     2365.5000     2761.2500      766.7500        1.7500        0.0000        1.0000
   10591.65225    13394.5000    14169.2500     8477.0000    11694.0000      805.0000     2339.5000     2714.2500      773.7500        1.7500        0.0000        1.0000
   10593.13028    13387.5000    14162.2500     8394.0000    12494.0000      802.0000     2317.5000     2660.2500      818.7500        2.7500        0.0000        1.0000
   10594.62689    13389.5000    14151.2500     8003.0000    12571.0000      799.0000     2300.5000     2547.2500      828.7500        1.7500        0.0000        1.0000
   10596.52397    13417.9125    14149.8363     7960.3900    12611.4650      793.1950     2273.5175     2380.3612      842.4188        1.6988        0.0000        1.0050
   10598.06391    13556.5025    14197.8432     8640.9260    12751.1810      800.6630     2267.3595     2556.8283      870.6237        1.5758        0.0000        1.0170
   10599.62245    13720.9750    13697.7675     8876.3400    12932.7900      807.1700     2189.6050     2615.9175      904.7625        2.4425        0.0000        1.0300
   10601.19956    13842.5650    13571.7745     8962.8760    13078.5060      812.6380     2101.4470     2589.3845      938.9675        2.3195        0.0000        1.0420
   10602.79527    13850.0375    14924.6987     9056.2900    13235.1150      813.1450     2299.6925     2583.4738      972.1063        3.1863        0.0000        1.0550
   10604.41574    13166.6275    15300.7057     9164.8260    13383.8310      766.6130     2349.5345     2611.9407     1004.3112        3.0633        0.0000        1.0670
   10606.04865    13280.1000    15456.6300     9274.2400    13554.4400      788.1200     2364.7800     2675.0300     1034.4500        2.9300        0.0000        1.0800
   10607.70632    14712.6900    15597.6370     9368.7760    13698.1560      870.5880     2365.6220     2753.4970     1062.6550        2.8070        0.0000        1.0920
   10609.37643    14915.1625    15723.5613     9454.1900    13835.7650      882.0950     2371.8675     2836.5863     1087.7938        2.6738        0.0000        1.1050
   10611.07132    15082.7525    15932.5683     9578.7260    14004.4810      895.5630     2393.7095     2939.0532     1113.9987        2.5508        0.0000        1.1170
   10612.78482    15210.2250    16092.4925     9683.1400    14166.0900      909.0700     2410.9550     3045.1425     1139.1375        3.4175        0.0000        1.1300
   10614.51695    15321.8150    16255.4995     9784.6760    14319.8060      921.5380     2431.7970     3139.6095     1160.3425        3.2945        0.0000        1.1420
   10616.26769    15501.2875    16396.4238     9865.0900    14438.4150      939.0450     2456.0425     3212.6988     1179.4813        4.1612        0.0000        1.1550
   10618.03707    15658.8775    16592.4307     9989.6260    14617.1310      954.5130     2489.8845     3281.1658     1197.6862        3.0382        0.0000        1.1670
   10619.82508    15828.3500    16766.3550    10089.0400    14756.7400      972.0200     2522.1300     3325.2550     1208.8250        2.9050        0.0000        1.1800
   10621.63172    15998.9400    16949.3620    10195.5760    14909.4560      992.4880     2558.9720     3360.7220     1222.0300        3.7820        0.0000        1.1920
   10623.45700    16135.4125    17110.2863    10294.9900    15048.0650     1011.9950     2594.2175     3382.8112     1232.1688        3.6487        0.0000        1.2050
   10625.30093    16290.0025    17241.2932    10374.5260    15184.7810     1028.4630     2629.0595     3403.2782     1242.3737        3.5257        0.0000        1.2170
   10627.16351    16446.4750    17439.2175    10489.9400    15331.3900     1044.9700     2674.3050     3445.3675     1247.5125        3.3925        0.0000        1.2300
   10629.05091    16613.0650    17590.2245    10590.4760    15478.1060     1057.4380     2715.1470     3497.8345     1256.7175        3.2695        0.0000        1.2420
   10630.95080    16750.5375    17738.1488    10658.8900    15595.7150     1060.9450     2754.3925     3546.9237     1260.8563        3.1363        0.0000        1.2550
   10632.87552    16910.1275    17928.1558    10784.4260    15754.4310     1064.4130     2798.2345     3616.3908     1269.0612        4.0133        0.0000        1.2670
   10634.81274    17084.6000    18097.0800    10879.8400    15900.0400     1067.9200     2840.4800     3675.4800     1279.2000        2.8800        0.0000        1.2800
   10636.77480    17252.1900    18280.0870    10994.3760    16064.7560     1071.3880     2882.3220     3727.9470     1290.4050        3.7570        0.0000        1.2920
   10638.74937    17432.6625    18468.0112    11103.7900    16220.3650     1074.8950     2924.5675     3770.0363     1300.5438        3.6238        0.0000        1.3050
   10640.74879    17576.2525    18615.0183    11192.3260    16347.0810     1085.3630     2975.4095     3811.5032     1316.7487        4.5008        0.0000        1.3170
   10642.76689    17725.7250    18774.9425    11287.7400    16483.6900     1090.8700     3018.6550     3830.5925     1330.8875        3.3675        0.0000        1.3300
   10644.80369    17843.3150    18894.9495    11360.2760    16596.4060     1095.3380     3054.4970     3833.0595     1341.0925        3.2445        0.0000        1.3420
   10646.85918    18059.7875    19135.8737    11506.6900    16805.0150     1106.8450     3110.7425     3863.1488     1357.2313        3.1113        0.0000        1.3550
   10648.93337    18220.3775    19298.8808    11601.2260    16939.7310     1114.3130     3153.5845     3874.6157     1363.4362        3.9883        0.0000        1.3670
   10651.02627    18359.8500    19448.8050    11690.6400    17070.3400     1118.8200     3187.8300     3887.7050     1360.5750        3.8550        0.0000        1.3800
   10653.13788    18508.4400    19606.8120    11784.1760    17207.0560     1124.2880     3226.6720     3911.1720     1357.7800        3.7320        0.0000        1.3920
   10655.26820    18682.9125    19779.7363    11883.5900    17341.6650     1133.7950     3278.9175     3963.2613     1360.9188        3.5987        0.0000        1.4050
   10657.41725    18847.5025    19949.7432    11982.1260    17483.3810     1136.2630     3320.7595     4004.7283     1357.1237        3.4757        0.0000        1.4170
   10659.58502    18997.9750    20105.6675    12071.5400    17598.9900     1137.7700     3358.0050     4040.8175     1355.2625        4.3425        0.0000        1.4300
   10661.77769    19152.5650    20271.6745    12171.0760    17739.7060     1142.2380     3390.8470     4074.2845     1357.4675        3.2195        0.0000        1.4420
   10663.98293    19319.0375    20444.5988    12271.4900    17834.3150     1152.7450     3430.0925     4106.3737     1359.6063        3.0862        0.0000        1.4550
   10666.20690    19469.6275    20602.6057    12361.0260    17677.0310     1161.2130     3451.9345     4119.8407     1343.8112        2.9632        0.0000        1.4670
   10668.45580    19620.1000    20769.5300    12459.4400    17585.6400     1174.7200     3481.1800     4131.9300     1344.9500        3.8300        0.0000        1.4800
   10670.71727    19784.6900    20935.5370    12530.9760    18381.3560     1192.1880     3508.0220     4135.3970     1405.1550        3.7070        0.0000        1.4920
   10673.00368    19951.1625    21106.4613    12419.3900    18608.9650     1214.6950     3537.2675     4104.4862     1431.2938        3.5738        0.0000        1.5050
   10675.30267    20070.7525    21216.4683    12346.9260    18691.6810     1241.1630     3549.1095     3986.9533     1446.4987        3.4508        0.0000        1.5170
   10677.62661    20221.2250    21292.3925    12882.3400    18752.2900     1269.6700     3555.3550     4159.0425     1458.6375        4.3175        0.0000        1.5300
   10679.96932    20376.8150    21145.3995    13038.8760    18854.0060     1302.1380     3540.1970     4237.5095     1478.8425        4.1945        0.0000        1.5420
   10682.32462    20483.2875    20919.3237    13090.2900    18584.6150     1325.6450     3467.4425     4250.5988     1466.9813        5.0613        0.0000        1.5550
   10684.70489    20595.8775    21969.3308    13158.8260    17345.3310     1343.1130     3633.2845     4281.0657     1390.1862        3.9383        0.0000        1.5670
   10687.10395    20270.3500    22191.2550    13044.2400    19847.9400     1320.6200     3673.5300     4274.1550     1591.3250        4.8050        0.0000        1.5800
   10689.52181    20129.9400    22286.2620    12100.7760    19915.6560     1317.0880     3676.3720     3974.6220     1613.5300        4.6820        0.0000        1.5920
   10691.95847    21247.4125    22059.1862    13570.1900    19941.2650     1379.5950     3632.6175     4366.7113     1622.6688        4.5488        0.0000        1.6050
   10694.40774    21377.0025    20631.1933    13776.7260    19936.9810     1376.0630     3423.4595     4500.1782     1630.8737        5.4258        0.0000        1.6170
   10696.88202    21402.4750    22635.1175    13858.1400    20229.5900     1373.5700     3670.7050     4515.2675     1663.0125        4.2925        0.0000        1.6300
   10699.37511    19838.0650    23233.1245    13932.6760    20356.3060     1259.0380     3794.5470     4535.7345     1678.2175        5.1695        0.0000        1.6420
   10701.88702    21796.5375    23344.0488    14027.0900    20502.9150     1402.5450     3800.7925     4568.8237     1699.3563        5.0362        0.0000        1.6550
   10704.41776    22216.1275    23495.0557    14131.6260    20660.6310     1417.0130     3818.6345     4620.2908     1716.5612        4.9132        0.0000        1.6670
   10706.97352    22305.6000    23626.9800    14214.0400    20785.2400     1420.5200     3840.8800     4680.3800     1731.7000        5.7800        0.0000        1.6800
   10709.54194    22481.1900    23821.9870    14328.5760    20937.9560     1428.9880     3875.7220     4756.8470     1749.9050        4.6570        0.0000        1.6920
   10712.12920    22603.6625    23943.9113    14398.9900    21039.5650     1434.4950     3896.9675     4813.9362     1759.0438        5.5237        0.0000        1.7050
   10714.73532    22616.2525    24078.9182    14478.5260    21151.2810     1434.9630     3919.8095     4875.4032     1769.2487        4.4007        0.0000        1.7170
   10717.36029    22901.7250    24189.8425    14532.9400    21327.8900     1456.4700     3948.0550     4940.4925     1783.3875        4.2675        0.0000        1.7300
   10720.01032    23034.3150    24404.8495    14669.4760    21348.6060     1463.9380     3987.8970     5031.9595     1784.5925        5.1445        0.0000        1.7420
   10722.67303    23189.7875    24572.7738    14770.8900    21576.2150     1468.4450     4022.1425     5108.0487     1803.7313        5.0113        0.0000        1.7550
   10725.35461    23337.3775    24741.7808    14878.4260    21741.9310     1469.9130     4053.9845     5154.5158     1816.9362        4.8882        0.0000        1.7670
   10728.06127    23512.8500    24931.7050    14996.8400    21914.5400     1475.4200     4103.2300     5209.6050     1837.0750        4.7550        0.0000        1.7800
   10730.78062    23682.4400    25101.7120    15091.3760    22043.2560     1476.8880     4139.0720     5233.0720     1846.2800        5.6320        0.0000        1.7920
   10733.51887    23837.9125    25282.6362    15208.7900    22219.8650     1486.3950     4182.3175     5268.1613     1866.4188        5.4988        0.0000        1.8050
   10736.28221    23979.5025    25418.6433    15282.3260    22314.5810     1499.8630     4217.1595     5281.6282     1879.6237        5.3758        0.0000        1.8170
   10739.05826    24038.9750    25479.5675    15323.7400    22389.1900     1519.3700     4244.4050     5288.7175     1887.7625        5.2425        0.0000        1.8300
   10741.85943    24233.5650    25691.5745    15452.2760    22577.9060     1547.8380     4283.2470     5313.1845     1902.9675        5.1195        0.0000        1.8420
   10744.67331    24421.0375    25895.4987    15578.6900    22753.5150     1581.3450     4333.4925     5357.2738     1914.1063        5.9863        0.0000        1.8550
   10747.51233    24560.6275    26039.5058    15661.2260    22872.2310     1613.8130     4376.3345     5397.7407     1923.3112        5.8633        0.0000        1.8670
   10750.36407    24703.1000    26186.4300    15745.6400    22997.8400     1636.3200     4414.5800     5435.8300     1929.4500        5.7300        0.0000        1.8800
   10753.24095    24862.6900    26356.4370    15850.1760    23147.5560     1655.7880     4463.4220     5491.2970     1943.6550        6.6070        0.0000        1.8920
   10756.13058    25021.1625    26528.3613    15952.5900    23300.1650     1672.2950     4513.6675     5545.3862     1956.7938        6.4737        0.0000        1.9050
   10759.04536    25177.7525    26702.3682    16062.1260    23462.8810     1687.7630     4563.5095     5591.8533     1973.9987        6.3507        0.0000        1.9170
   10761.97290    25315.2250    26848.2925    16146.5400    23589.4900     1702.2700     4605.7550     5623.9425     1986.1375        6.2175        0.0000        1.9300
   10764.92560    25466.8150    27019.2995    16254.0760    23754.2060     1719.7380     4648.5970     5663.4095     2005.3425        6.0945        0.0000        1.9420
   10767.89728    25626.2875    27178.2238    16345.4900    23879.8150     1739.2450     4692.8425     5705.4987     2022.4813        5.9612        0.0000        1.9550
   10770.88173    25775.8775    27347.2307    16449.0260    24021.5310     1750.7130     4732.6845     5743.9657     2038.6862        6.8382        0.0000        1.9670
   10773.89136    25897.3500    27468.1550    16512.4400    24152.1400     1760.2200     4766.9300     5768.0550     2055.8250        6.7050        0.0000        1.9800
   10776.91379    26009.9400    27618.1620    16616.9760    24292.8560     1764.6880     4809.7720     5815.5220     2077.0300        6.5820        0.0000        1.9920
   10779.96142    26072.4125    27662.0863    16650.3900    24361.4650     1757.1950     4835.0175     5834.6112     2096.1687        6.4488        0.0000        2.0050
   10783.02805    26322.0025    27937.0933    16810.9260    24578.1810     1756.6630     4890.8595     5895.0783     2123.3738        6.3257        0.0000        2.0170
   10786.10749    26486.4750    28100.0175    16904.3400    24701.7900     1753.1700     4924.1050     5929.1675     2143.5125        6.1925        0.0000        2.0300
   10789.21215    26605.0650    28229.0245    16985.8760    24829.5060     1751.6380     4953.9470     5953.6345     2163.7175        6.0695        0.0000        2.0420
   10792.33584    26818.5375    28454.9487    17110.2900    24983.1150     1761.1450     5004.1925     5998.7237     2192.8562        5.9362        0.0000        2.0550
   10795.47856    26897.1275    28543.9558    17165.8260    25049.8310     1765.6130     5022.0345     6004.1907     2211.0613        5.8132        0.0000        2.0670
   10798.63411    27093.6000    28747.8800    17276.2400    25091.4400     1779.1200     5059.2800     6027.2800     2221.2000        6.6800        0.0000        2.0800
   10801.81492    27195.1900    28855.8870    17333.7760    24293.1560     1792.5880     5083.1220     6036.7470     2162.4050        6.5570        0.0000        2.0920
   10805.01478    27333.6625    28988.8112    17368.1900    25723.7650     1811.0950     5103.3675     6039.8363     2292.5437        7.4238        0.0000        2.1050
   10808.22749    27524.2525    29187.8183    16936.7260    25958.4810     1838.5630     5144.2095     5961.3032     2322.7488        7.3008        0.0000        2.1170
   10811.46548    27647.7250    29259.7425    17591.1400    26005.0900     1855.0700     5150.4550     6034.3925     2328.8875        7.1675        0.0000        2.1300
   10814.72254    27788.3150    28789.7495    17904.6760    26113.8060     1875.5380     5087.2970     6258.8595     2336.0925        7.0445        0.0000        2.1420
   10817.99247    27829.7875    29013.6738    17912.0900    26174.4150     1892.0450     5063.5425     6304.9488     2345.2312        6.9113        0.0000        2.1550
   10821.28770    27558.3775    29935.6807    17973.6260    26292.1310     1880.5130     5254.3845     6336.4158     2346.4363        7.7883        0.0000        2.1670
   10824.60203    27478.8500    30141.6050    18121.0400    26500.7400     1901.0200     5287.6300     6424.5050     2367.5750        7.6550        0.0000        2.1800
   10827.92924    28550.4400    30236.6120    18193.5760    26626.4560     1978.4880     5320.4720     6500.9720     2391.7800        8.5320        0.0000        2.1920
   10831.28178    28576.9125    30306.5363    18239.9900    26697.0650     1981.9950     5331.7175     6545.0612     2401.9187        7.3987        0.0000        2.2050
   10834.64722    28752.5025    30522.5432    18374.5260    26765.7810     2007.4630     5391.5595     6632.5282     2412.1238        7.2757        0.0000        2.2170
   10838.03800    28892.9750    30538.4675    18460.9400    27030.3900     2018.9700     5391.8050     6665.6175     2442.2625        7.1425        0.0000        2.2300
   10841.44791    29019.5650    30804.4745    18541.4760    27142.1060     2040.4380     5454.6470     6714.0845     2467.4675        8.0195        0.0000        2.2420
   10844.87074    29126.0375    30935.3988    18668.8900    27326.7150     2052.9450     5491.8925     6762.1737     2496.6062        7.8863        0.0000        2.2550
   10848.31894    29340.6275    31147.4058    18756.4260    27385.4310     2070.4130     5541.7345     6788.6408     2509.8113        7.7632        0.0000        2.2670
   10851.78007    29462.1000    31289.3300    18841.8400    27588.0400     2075.9200     5579.9800     6825.7300     2537.9500        8.6300        0.0000        2.2800
   10855.26659    29628.6900    31471.3370    18945.3760    27734.7560     2087.3880     5618.8220     6872.1970     2553.1550        8.5070        0.0000        2.2920
   10858.76605    29772.1625    31636.2612    19049.7900    27894.3650     2094.8950     5669.0675     6938.2862     2570.2937        8.3737        0.0000        2.3050
   10862.29091    29913.7525    31750.2683    19085.3260    27999.0810     2092.3630     5692.9095     6957.7532     2575.4988        8.2507        0.0000        2.3170
   10865.82872    30062.2250    31788.1925    19128.7400    27887.6900     2099.8700     5721.1550     7004.8425     2573.6375        9.1175        0.0000        2.3300
   10869.39196    30151.8150    31916.1995    19332.2760    28335.4060     2097.3380     5757.9970     7099.3095     2616.8425        7.9945        0.0000        2.3420
   10872.96816    30362.2875    32289.1237    19457.6900    28513.0150     2103.8450     5833.2425     7154.3988     2632.9812        8.8613        0.0000        2.3550
   10876.56981    30491.8775    32398.1308    19454.2260    28459.7310     2106.3130     5851.0845     7153.8657     2627.1863        8.7383        0.0000        2.3670
   10880.18443    30476.3500    32384.0550    19512.6400    28607.3400     2113.8200     5868.3300     7201.9550     2647.3250        8.6050        0.0000        2.3800
   10883.81828    30786.9400    32720.0620    19704.1760    28857.0560     2153.2880     5957.1720     7309.4220     2684.5300        8.4820        0.0000        2.3920
   10887.47758    30859.4125    32790.9863    19750.5900    28945.6650     2175.7950     5985.4175     7341.5113     2693.6687        9.3488        0.0000        2.4050
   10891.14990    30966.0025    32910.9932    19830.1260    29073.3810     2208.2630     6037.2595     7399.9783     2724.8738        9.2258        0.0000        2.4170
   10894.84145    31222.4750    33198.9175    20002.5400    29322.9900     2245.7700     6109.5050     7467.0675     2753.0125       10.0925        0.0000        2.4300
   10898.55849    31364.0650    33342.9245    20087.0760    29444.7060     2272.2380     6157.3470     7496.5345     2776.2175        8.9695        0.0000        2.4420
   10902.28856    31546.5375    33554.8487    20219.4900    29641.3150     2296.7450     6211.5925     7546.6237     2805.3562        9.8362        0.0000        2.4550
   10906.03790    31587.1275    33596.8558    20247.0260    29714.0310     2311.2130     6242.4345     7560.0907     2821.5613        9.7132        0.0000        2.4670
   10909.80651    31826.6000    33852.7800    20398.4400    29914.6400     2331.7200     6302.6800     7611.1800     2852.7000       10.5800        0.0000        2.4800
   10913.59440    31983.1900    34018.7870    20495.9760    30059.3560     2353.1880     6363.5220     7671.6470     2882.9050       10.4570        0.0000        2.4920
   10917.40159    32076.6625    34130.7113    20574.3900    30189.9650     2361.6950     6400.7675     7705.7362     2906.0437       10.3238        0.0000        2.5050
   10921.22807    32246.2525    34314.7182    20684.9260    30352.6810     2377.1630     6451.6095     7753.2033     2930.2488       10.2007        0.0000        2.5170
   10925.07386    32401.7250    34480.6425    20780.3400    30489.2900     2392.6700     6502.8550     7795.2925     2956.3875       10.0675        0.0000        2.5300
   10928.93897    32501.3150    34562.6495    20774.8760    30527.0060     2408.1380     6538.6970     7801.7595     2970.5925        9.9445        0.0000        2.5420
   10932.82340    32656.7875    34743.5738    20938.2900    30729.6150     2426.6450     6581.9425     7866.8487     2993.7312       10.8112        0.0000        2.5550
   10936.72716    32678.3775    34778.5808    20969.8260    30800.3310     2435.1130     6605.7845     7904.3157     3012.9363       10.6882        0.0000        2.5670
   10940.65026    32882.8500    34999.5050    21107.2400    30986.9400     2452.6200     6659.0300     7980.4050     3033.0750       10.5550        0.0000        2.5800
   10944.58646    32960.4400    35016.5120    21133.7760    31106.6560     2460.0880     6684.8720     8024.8720     3054.2800       10.4320        0.0000        2.5920
   10948.54826    33211.9125    35357.4362    21313.1900    31296.2650     2476.5950     6753.1175     8116.9613     3077.4187       11.2988        0.0000        2.6050
   10952.52943    33364.5025    35526.4432    21420.7260    31451.9810     2487.0630     6798.9595     8186.4282     3099.6238       12.1758        0.0000        2.6170
   10956.52372    33525.9750    35683.3675    21512.1400    31577.5900     2503.5700     6847.2050     8258.5175     3121.7625       11.0425        0.0000        2.6300
   10960.54364    33663.5650    35835.3745    21597.6760    31700.3060     2513.0380     6899.0470     8323.9845     3150.9675       10.9195        0.0000        2.6420
   10964.57669    33779.0375    35871.2988    21625.0900    31867.9150     2517.5450     6918.2925     8343.0737     3179.1062       10.7863        0.0000        2.6550
   10968.63540    33880.6275    36058.3057    21741.6260    31930.6310     2521.0130     6968.1345     8398.5408     3203.3113       11.6633        0.0000        2.6670
   10972.70725    33449.1000    36239.2300    21839.0400    32053.2400     2496.5200     7009.3800     8429.6300     3225.4500       11.5300        0.0000        2.6800
   10976.79852    34145.6900    35720.2370    21908.5760    32152.9560     2547.9880     6934.2220     8462.0970     3253.6550       11.4070        0.0000        2.6920
   10980.91546    34339.1625    36531.1612    21965.9900    32005.5650     2573.4950     7082.4675     8493.1862     3245.7937       12.2737        0.0000        2.7050
   10985.04558    34561.7525    36755.1683    22124.5260    32419.2810     2614.9630     7142.3095     8566.6532     3301.9988       12.1507        0.0000        2.7170
   10989.19513    34651.2250    36866.0925    22200.9400    32525.8900     2643.4700     7165.5550     8601.7425     3319.1375       12.0175        0.0000        2.7300
   10993.36413    34218.8150    36525.0995    22031.4760    32298.6060     2635.9380     7112.3970     8559.2095     3304.3425       12.8945        0.0000        2.7420
   10997.55258    35001.2875    37232.0238    22416.8900    32818.2150     2715.4450     7263.6425     8737.2987     3365.4812       12.7613        0.0000        2.7550
   11001.76049    35080.8775    37310.0307    22456.4260    32875.9310     2744.9130     7303.4845     8801.7658     3384.6863       12.6382        0.0000        2.7670
   11005.98788    35245.3500    37491.9550    22563.8400    33023.5400     2769.4200     7348.7300     8881.8550     3401.8250       12.5050        0.0000        2.7800
   11010.23474    35461.9400    37721.9620    22692.3760    33168.2560     2797.8880     7403.5720     8977.3220     3422.0300       12.3820        0.0000        2.7920
   11014.49483    35628.4125    37908.8863    22814.7900    33382.8650     2822.3950     7461.8175     9069.4112     3456.1687       13.2487        0.0000        2.8050
   11018.78068    35406.0025    37672.8933    22713.3260    33401.5810     2807.8630     7429.6595     9045.8782     3462.3738       13.1257        0.0000        2.8170
   11023.08604    35973.4750    38303.8175    23060.7400    33742.1900     2857.3700     7581.9050     9222.9675     3508.5125       13.9925        0.0000        2.8300
   11027.40464    35687.0650    38464.8245    23180.2760    33907.9060     2823.8380     7624.7470     9280.4345     3529.7175       12.8695        0.0000        2.8420
   11031.74903    36302.5375    38560.7487    23051.6900    34051.5150     2878.3450     7669.9925     9226.5238     3556.8562       13.7363        0.0000        2.8550
   11036.10668    36422.1275    38758.7557    23314.2260    33495.2310     2882.8130     7718.8345     9361.9908     3504.0613       12.6133        0.0000        2.8670
   11040.48387    36541.6000    38882.6800    23393.6400    34194.8400     2888.3200     7757.0800     9405.0800     3590.2000       13.4800        0.0000        2.8800
   11044.88687    36725.1900    39073.6870    23503.1760    34335.5560     2897.7880     7812.9220     9457.5470     3617.4050       13.3570        0.0000        2.8920
   11049.30317    36867.6625    39216.6113    23588.5900    34448.1650     2908.2950     7864.1675     9501.6362     3645.5437       14.2238        0.0000        2.9050
   11053.73902    36971.2525    39344.6182    23676.1260    34579.8810     2922.7630     7914.0095     9555.1033     3677.7488       14.1008        0.0000        2.9170
   11058.19445    37107.7250    39472.5425    23745.5400    34668.4900     2938.2700     7967.2550     9597.1925     3703.8875       13.9675        0.0000        2.9300
   11062.66946    37202.3150    39589.5495    23821.0760    34785.2060     2954.7380     8017.0970     9643.6595     3734.0925       14.8445        0.0000        2.9420
   11067.15779    37323.7875    39697.4737    23875.4900    34850.8150     2973.2450     8057.3425     9664.7487     3758.2312       14.7112        0.0000        2.9550
   11071.67199    37455.3775    39851.4808    23966.0260    34984.5310     2997.7130     8113.1845     9710.2157     3789.4363       15.5882        0.0000        2.9670
   11076.20580    37492.8500    39885.4050    23993.4400    35040.1400     3007.2200     8128.4300     9732.3050     3808.5750       14.4550        0.0000        2.9800
   11080.75294    37627.4400    40034.4120    24083.9760    35173.8560     3038.6880     8198.2720     9817.7720     3838.7800       15.3320        0.0000        2.9920
   11085.32600    37761.9125    40165.3363    24158.3900    35274.4650     3062.1950     8256.5175     9895.8612     3871.9187       15.1988        0.0000        3.0050
   11089.91240    37871.5025    40285.3432    24226.9260    35371.1810     3084.6630     8306.3595     9968.3283     3895.1238       15.0757        0.0000        3.0170
   11094.51845    37981.9750    40398.2675    24302.3400    35482.7900     3114.1700     8361.6050    10038.4175     3922.2625       15.9425        0.0000        3.0300
   11099.14415    38010.5650    40427.2745    24313.8760    35508.5060     3133.6380     8390.4470    10070.8845     3931.4675       15.8195        0.0000        3.0420
   11103.78950    38282.0375    40721.1988    24488.2900    35740.1150     3180.1450     8471.6925    10176.9738     3967.6062       15.6862        0.0000        3.0550
   11108.45453    38405.6275    40855.2058    24572.8260    35869.8310     3213.6130     8529.5345    10251.4407     4000.8113       17.5632        0.0000        3.0670
   11113.13924    38565.1000    41020.1300    24667.2400    35992.4400     3241.1200     8577.7800    10303.5300     4021.9500       17.4300        0.0000        3.0800
   11117.84363    38670.6900    41125.1370    24728.7760    36081.1560     3259.5880     8604.6220    10332.9970     4046.1550       16.3070        0.0000        3.0920
   11122.56772    38647.1625    41112.0612    24736.1900    36117.7650     3280.0950     8655.8675    10370.0863     4072.2937       17.1738        0.0000        3.1050
   11127.30523    38964.7525    41443.0682    24913.7260    36339.4810     3315.5630     8744.7095    10450.5533     4112.4987       17.0508        0.0000        3.1170
   11132.06874    39071.2250    41569.9925    24995.1400    36458.0900     3332.0700     8802.9550    10499.6425     4146.6375       17.9175        0.0000        3.1300
   11136.84568    39229.8150    41732.9995    25080.6760    36574.8060     3346.5380     8854.7970    10542.1095     4173.8425       17.7945        0.0000        3.1420
   11141.64235    39336.2875    41826.9238    25133.0900    36633.4150     3359.0450     8901.0425    10584.1987     4194.9812       18.6613        0.0000        3.1550
   11146.45876    39504.8775    42005.9307    25241.6260    36779.1310     3377.5130     8963.8845    10658.6658     4224.1862       17.5383        0.0000        3.1670
   11151.29492    39572.3500    42080.8550    25289.0400    36857.7400     3382.0200     8998.1300    10687.7550     4247.3250       17.4050        0.0000        3.1800
   11156.15084    39758.9400    42280.8620    25407.5760    37012.4560     3402.4880     9071.9720    10773.2220     4281.5300       18.2820        0.0000        3.1920
   11161.02653    39877.4125    42403.7862    25476.9900    37117.0650     3414.9950     9116.2175    10837.3112     4307.6687       19.1487        0.0000        3.2050
   11165.92199    39929.0025    42476.7933    25529.5260    37218.7810     3421.4630     9160.0595    10911.7782     4335.8737       19.0258        0.0000        3.2170
   11170.83094    40087.4750    42652.7175    25640.9400    37379.3900     3435.9700     9218.3050    11008.8675     4362.0125       18.8925        0.0000        3.2300
   11175.76599    40235.0650    42815.7245    25734.4760    37508.1060     3456.4380     9276.1470    11115.3345     4397.2175       18.7695        0.0000        3.2420
   11180.71454    40169.5375    42926.6488    25799.8900    37602.7150     3456.9450     9313.3925    11192.4237     4419.3562       18.6363        0.0000        3.2550
   11185.68290    40572.1275    43143.6557    25934.4260    37813.4310     3516.4130     9399.2345    11316.8908     4466.5612       19.5132        0.0000        3.2670
   11190.67108    40779.6000    43389.5800    26068.8400    37737.0400     3541.9200     9444.4800    11384.9800     4467.7000       19.3800        0.0000        3.2800
   11195.67909    40873.1900    43508.5870    26140.3760    38089.7560     3580.3880     9518.3220    11459.4470     4530.9050       20.2570        0.0000        3.2920
   11200.70694    41016.6625    43655.5113    26223.7900    38202.3650     3608.8950     9578.5675    11513.5363     4563.0437       20.1238        0.0000        3.3050
   11205.75465    41106.2525    43767.5183    26297.3260    38334.0810     3632.3630     9632.4095    11556.0032     4599.2487       20.0007        0.0000        3.3170
   11210.81590    41273.7250    43936.4425    26391.7400    38447.6900     3661.8700     9693.6550    11605.0925     4631.3875       19.8675        0.0000        3.3300
   11215.90333    41369.3150    44044.4495    26458.2760    38547.4060     3683.3380     9743.4970    11648.5595     4664.5925       20.7445        0.0000        3.3420
   11221.00433    41224.7875    44179.3737    26551.6900    38691.0150     3688.8450     9797.7425    11706.6488     4696.7312       20.6112        0.0000        3.3550
   11226.12521    41602.3775    44248.3807    26535.2260    38745.7310     3738.3130     9844.5845    11712.1158     4725.9362       21.4883        0.0000        3.3670
   11231.26598    41762.8500    44475.3050    26730.6400    38639.3400     3778.8200     9923.8300    11822.2050     4731.0750       21.3550        0.0000        3.3800
   11236.42667    41937.4400    44649.3120    26810.1760    39029.0560     3827.2880     9994.6720    11880.6720     4802.2800       22.2320        0.0000        3.3920
   11241.60726    42007.9125    44734.2363    26869.5900    39118.6650     3859.7950    10036.9175    11924.7612     4830.4187       23.0988        0.0000        3.4050
   11246.80146    41794.5025    44779.2432    26928.1260    39201.3810     3862.2630    10074.7595    11985.2283     4857.6237       21.9758        0.0000        3.4170
   11252.02191    42274.9750    44862.1675    27011.5400    39339.9900     3922.7700    10136.0050    12079.3175     4896.7625       22.8425        0.0000        3.4300
   11257.25598    42368.5650    45102.1745    27075.0760    39334.7060     3944.2380    10226.8470    12173.7845     4917.9675       22.7195        0.0000        3.4420
   11262.51001    42448.0375    45286.0987    27188.4900    39570.3150     3950.7450    10288.0925    12260.8737     4958.1062       23.5862        0.0000        3.4550
   11267.79031    42644.6275    45396.1058    27246.0260    39620.0310     3965.2130    10333.9345    12328.3407     4979.3112       24.4633        0.0000        3.4670
   11273.07794    42767.1000    45547.0300    27337.4400    39758.6400     3980.7200    10411.1800    12428.4300     5016.4500       23.3300        0.0000        3.4800
   11278.39187    42938.6900    45313.0370    27383.9760    39297.3560     3993.1880    10402.0220    12508.8970     4987.6550       24.2070        0.0000        3.4920
   11283.72580    42943.1625    44886.9613    27421.3900    39749.9650     3989.6950    10340.2675    12556.9862     5060.7937       24.0738        0.0000        3.5050
   11289.07339    43065.7525    45874.9682    27540.9260    40051.6810     4003.1630    10595.1095    12641.4533     5122.9987       23.9507        0.0000        3.5170
   11294.44731    43245.2250    46035.8925    27631.3400    40159.2900     4020.6700    10654.3550    12696.5425     5148.1375       23.8175        0.0000        3.5300
   11299.83492    43422.8150    46186.8995    27693.8760    40205.0060     4052.1380    10735.1970    12765.0095     5184.3425       24.6945        0.0000        3.5420
   11305.24256    43468.2875    46234.8238    27724.2900    40260.6150     4070.6450    10766.4425    12789.0988     5207.4812       25.5613        0.0000        3.5550
   11310.67024    43555.8775    46346.8308    27797.8260    40378.3310     4107.1130    10828.2845    12840.5657     5247.6862       26.4382        0.0000        3.5670
   11316.11162    43681.3500    46485.7550    27885.2400    40501.9400     4143.6200    10893.5300    12888.6550     5289.8250       25.3050        0.0000        3.5800
   11321.57939    43803.9400    46613.7620    27959.7760    40603.6560     4180.0880    10956.3720    12934.1220     5324.0300       26.1820        0.0000        3.5920
   11327.06089    43831.4125    46638.6862    27975.1900    40648.2650     4208.5950    11002.6175    12969.2113     5353.1687       27.0487        0.0000        3.6050
   11332.56246    43909.0025    46712.6932    28015.7260    40713.9810     4232.0630    11045.4595    13001.6783     5382.3737       26.9258        0.0000        3.6170
   11338.09045    44036.4750    46830.6175    28086.1400    40675.5900     4271.5700    11117.7050    13085.7675     5402.5125       27.7925        0.0000        3.6300
   11343.62586    43826.0650    46969.6245    27661.6760    40942.3060     4263.0380    11171.5470    12878.2345     5452.7175       26.6695        0.0000        3.6420
   11349.18770    43274.5375    46896.5488    28187.0900    41041.9150     4225.5450    11193.7925    13231.3237     5490.8562       27.5363        0.0000        3.6550
   11354.76966    44312.1275    47088.5557    28330.6260    41202.6310     4333.0130    11242.6345    13318.7908     5515.0612       27.4133        0.0000        3.6670
   11360.36539    44543.6000    47426.4800    28262.0400    41379.2400     4395.5200    11402.8800    13388.8800     5577.2000       28.2800        0.0000        3.6800
   11365.98125    44663.1900    47552.4870    28532.5760    41465.9560     4430.9880    11467.7220    13589.3470     5613.4050       29.1570        0.0000        3.6920
   11371.61725    44857.6625    47755.4112    28567.9900    41440.5650     4470.4950    11550.9675    13667.4362     5633.5437       30.0237        0.0000        3.7050
   11377.27340    44924.2525    47931.4183    28772.5260    41859.2810     4502.9630    11632.8095    13814.9032     5717.7487       29.9008        0.0000        3.7170
   11382.94971    45130.7250    48049.3425    28762.9400    41883.8900     4539.4700    11689.0550    13846.9925     5740.8875       30.7675        0.0000        3.7300
   11388.63983    45197.3150    48135.3495    28862.4760    41943.6060     4566.9380    11749.8970    13944.4595     5776.0925       30.6445        0.0000        3.7420
   11394.35648    45242.7875    48106.2738    28815.8900    41818.2150     4581.4450    11782.1425    13960.5487     5785.2312       30.5113        0.0000        3.7550
