XDAC V1.4 Datafile V1
"re4chan.001" created on 8/19/09 at 3:14:33 PM on X-23A2
Diffraction element= Si (311).  Ring energy= 2.80 GeV
E0= 10535.00
NUM_REGIONS= 4
SRB= -200 -20 30 60 15k
SRSS= 10 0.4 0.05k 0.05k
SPP= 1 1 1 0.25k
Settling time= 0.50


Offsets= 117.50 82.75 122.00 107.00 961.00 1596.50 1377.75 66.25 10.25 0.00 0.00
Gains= 8.00 8.00 8.00 8.00 7.00 7.00 7.00 7.00 9.00 0.00 1.00
4 channel ion chambers
1: Re powder  2: NH4ReO4  3: ReO3  4: ReO2
50/50 Ar/N2 in I0; Ar in It
--------------------------------------------------------------------------------
        Energy            I0           I02           I03           I04           It1           It2           It3           It4          Iref          temp       IntTime
   10334.99870    13621.5000    14464.2500     8733.0000    12867.0000     2850.0000     5147.5000     5577.2500     3661.7500       72.7500        0.0000        1.0000
   10345.00272    13102.5000    14163.2500     8703.0000    12875.0000     2754.0000     5057.5000     5575.2500     3683.7500       73.7500        0.0000        1.0000
   10354.99923    13581.5000    14429.2500     8716.0000    12838.0000     2874.0000     5183.5000     5614.2500     3698.7500       73.7500        0.0000        1.0000
   10365.00040    13606.5000    14448.2500     8723.0000    12841.0000     2897.0000     5216.5000     5651.2500     3722.7500       74.7500        0.0000        1.0000
   10375.00012    13575.5000    14405.2500     8691.0000    12781.0000     2910.0000     5232.5000     5666.2500     3729.7500       75.7500        0.0000        1.0000
   10384.99837    13554.5000    14388.2500     8683.0000    12773.0000     2916.0000     5240.5000     5673.2500     3740.7500       76.7500        0.0000        1.0000
   10395.00123    13530.5000    14360.2500     8665.0000    12744.0000     2932.0000     5266.5000     5701.2500     3764.7500       77.7500        0.0000        1.0000
   10405.00259    13536.5000    14362.2500     8663.0000    12730.0000     2950.0000     5294.5000     5731.2500     3786.7500       79.7500        0.0000        1.0000
   10415.00243    13497.5000    14307.2500     8623.0000    12661.0000     2960.0000     5304.5000     5738.2500     3791.7500       79.7500        0.0000        1.0000
   10425.00074    13500.5000    14313.2500     8626.0000    12654.0000     2980.0000     5335.5000     5770.2500     3811.7500       80.7500        0.0000        1.0000
   10434.99749    13420.5000    14221.2500     8565.0000    12561.0000     2978.0000     5326.5000     5754.2500     3805.7500       81.7500        0.0000        1.0000
   10444.99878    13445.5000    14246.2500     8580.0000    12585.0000     2986.0000     5342.5000     5775.2500     3828.7500       82.7500        0.0000        1.0000
   10454.99849    13408.5000    14167.2500     8538.0000    12553.0000     2991.0000     5329.5000     5760.2500     3829.7500       82.7500        0.0000        1.0000
   10465.00271    13452.5000    14259.2500     8588.0000    12593.0000     3028.0000     5411.5000     5844.2500     3875.7500       84.7500        0.0000        1.0000
   10474.99920    13428.5000    14230.2500     8568.0000    12555.0000     3030.0000     5412.5000     5847.2500     3878.7500       84.7500        0.0000        1.0000
   10485.00017    13325.5000    14209.2500     8559.0000    12549.0000     3011.0000     5416.5000     5855.2500     3880.7500       84.7500        0.0000        1.0000
   10494.99949    13380.5000    14181.2500     8538.0000    12503.0000     3033.0000     5433.5000     5870.2500     3882.7500       84.7500        0.0000        1.0000
   10504.99713    13383.5000    14179.2500     8534.0000    12492.0000     2995.0000     5389.5000     5829.2500     3843.7500       82.7500        0.0000        1.0000
   10514.99923    13357.5000    14145.2500     8509.0000    12449.0000     2926.0000     5331.5000     5767.2500     3757.7500       77.7500        0.0000        1.0000
   10515.39818    13370.5000    14171.2500     8533.0000    12490.0000     2926.0000     5341.5000     5783.2500     3767.7500       77.7500        0.0000        1.0000
   10515.79714    13372.5000    14164.2500     8523.0000    12476.0000     2916.0000     5322.5000     5760.2500     3747.7500       77.7500        0.0000        1.0000
   10516.20224    13355.5000    14150.2500     8518.0000    12468.0000     2910.0000     5321.5000     5760.2500     3744.7500       76.7500        0.0000        1.0000
   10516.60121    13370.5000    14168.2500     8529.0000    12481.0000     2909.0000     5326.5000     5765.2500     3744.7500       75.7500        0.0000        1.0000
   10517.00018    13371.5000    14169.2500     8529.0000    12479.0000     2902.0000     5319.5000     5761.2500     3736.7500       75.7500        0.0000        1.0000
   10517.39917    13369.5000    14167.2500     8527.0000    12477.0000     2894.0000     5310.5000     5748.2500     3723.7500       75.7500        0.0000        1.0000
   10517.79816    13373.5000    14169.2500     8525.0000    12475.0000     2883.0000     5295.5000     5733.2500     3712.7500       74.7500        0.0000        1.0000
   10518.19716    13372.5000    14170.2500     8529.0000    12481.0000     2877.0000     5294.5000     5732.2500     3707.7500       74.7500        0.0000        1.0000
   10518.60230    13369.5000    14165.2500     8526.0000    12478.0000     2868.0000     5284.5000     5721.2500     3695.7500       73.7500        0.0000        1.0000
   10519.00131    13366.5000    14162.2500     8525.0000    12474.0000     2861.0000     5278.5000     5716.2500     3688.7500       73.7500        0.0000        1.0000
   10519.40033    13357.5000    14153.2500     8516.0000    12457.0000     2848.0000     5265.5000     5699.2500     3672.7500       72.7500        0.0000        1.0000
   10519.79936    13359.5000    14157.2500     8521.0000    12470.0000     2842.0000     5261.5000     5697.2500     3668.7500       71.7500        0.0000        1.0000
   10520.19839    13333.5000    14123.2500     8503.0000    12448.0000     2824.0000     5236.5000     5672.2500     3649.7500       71.7500        0.0000        1.0000
   10520.59743    13367.5000    14166.2500     8526.0000    12476.0000     2823.0000     5241.5000     5678.2500     3646.7500       71.7500        0.0000        1.0000
   10521.00262    13352.5000    14147.2500     8517.0000    12465.0000     2813.0000     5232.5000     5666.2500     3635.7500       69.7500        0.0000        1.0000
   10521.40168    13361.5000    14159.2500     8523.0000    12474.0000     2804.0000     5227.5000     5664.2500     3626.7500       68.7500        0.0000        1.0000
   10521.80074    13361.5000    14159.2500     8521.0000    12467.0000     2784.0000     5203.5000     5636.2500     3604.7500       68.7500        0.0000        1.0000
   10522.19981    13360.5000    14154.2500     8520.0000    12468.0000     2767.0000     5189.5000     5620.2500     3584.7500       67.7500        0.0000        1.0000
   10522.59888    13359.5000    14153.2500     8517.0000    12463.0000     2756.0000     5179.5000     5613.2500     3575.7500       67.7500        0.0000        1.0000
   10522.99797    13368.5000    14167.2500     8529.0000    12480.0000     2741.0000     5166.5000     5599.2500     3558.7500       65.7500        0.0000        1.0000
   10523.39706    13353.5000    14150.2500     8519.0000    12473.0000     2720.0000     5140.5000     5572.2500     3533.7500       64.7500        0.0000        1.0000
   10523.80229    13347.5000    14148.2500     8517.0000    12465.0000     2694.0000     5114.5000     5546.2500     3510.7500       64.7500        0.0000        1.0000
   10524.20140    13358.5000    14156.2500     8517.0000    12461.0000     2683.0000     5110.5000     5542.2500     3498.7500       63.7500        0.0000        1.0000
   10524.60051    13369.5000    14172.2500     8528.0000    12479.0000     2666.0000     5099.5000     5530.2500     3476.7500       61.7500        0.0000        1.0000
   10524.99963    13359.5000    14160.2500     8525.0000    12478.0000     2633.0000     5055.5000     5482.2500     3440.7500       60.7500        0.0000        1.0000
   10525.39875    13358.5000    14158.2500     8522.0000    12471.0000     2622.0000     5061.5000     5488.2500     3433.7500       59.7500        0.0000        1.0000
   10525.79789    13352.5000    14154.2500     8520.0000    12470.0000     2610.0000     5057.5000     5487.2500     3420.7500       58.7500        0.0000        1.0000
   10526.19703    13349.5000    14144.2500     8513.0000    12455.0000     2586.0000     5037.5000     5463.2500     3394.7500       57.7500        0.0000        1.0000
   10526.60231    13344.5000    14144.2500     8514.0000    12458.0000     2556.0000     5010.5000     5436.2500     3364.7500       55.7500        0.0000        1.0000
   10527.00147    13338.5000    14137.2500     8512.0000    12460.0000     2527.0000     4988.5000     5413.2500     3337.7500       54.7500        0.0000        1.0000
   10527.40063    13332.5000    14133.2500     8509.0000    12456.0000     2500.0000     4962.5000     5388.2500     3308.7500       52.7500        0.0000        1.0000
   10527.79980    13332.5000    14132.2500     8508.0000    12455.0000     2467.0000     4940.5000     5361.2500     3274.7500       51.7500        0.0000        1.0000
   10528.19897    13348.5000    14150.2500     8519.0000    12467.0000     2429.0000     4908.5000     5328.2500     3236.7500       49.7500        0.0000        1.0000
   10528.59815    13339.5000    14138.2500     8511.0000    12455.0000     2389.0000     4875.5000     5291.2500     3194.7500       47.7500        0.0000        1.0000
   10528.99734    13332.5000    14132.2500     8510.0000    12455.0000     2346.0000     4845.5000     5258.2500     3152.7500       45.7500        0.0000        1.0000
   10529.40268    13334.5000    14132.2500     8508.0000    12451.0000     2290.0000     4790.5000     5199.2500     3092.7500       43.7500        0.0000        1.0000
   10529.80188    13335.5000    14135.2500     8510.0000    12449.0000     2243.0000     4763.5000     5168.2500     3044.7500       41.7500        0.0000        1.0000
   10530.20109    13337.5000    14134.2500     8508.0000    12452.0000     2193.0000     4720.5000     5122.2500     2996.7500       39.7500        0.0000        1.0000
   10530.60031    13333.5000    14135.2500     8510.0000    12455.0000     2143.0000     4683.5000     5085.2500     2951.7500       37.7500        0.0000        1.0000
   10530.99953    13328.5000    14125.2500     8505.0000    12449.0000     2080.0000     4629.5000     5023.2500     2884.7500       34.7500        0.0000        1.0000
   10531.39877    13329.5000    14130.2500     8507.0000    12452.0000     1995.0000     4568.5000     4956.2500     2803.7500       32.7500        0.0000        1.0000
   10531.79800    13335.5000    14136.2500     8511.0000    12458.0000     1915.0000     4510.5000     4893.2500     2724.7500       28.7500        0.0000        1.0000
   10532.19725    13333.5000    14132.2500     8510.0000    12453.0000     1839.0000     4462.5000     4835.2500     2652.7500       26.7500        0.0000        1.0000
   10532.60264    13334.5000    14133.2500     8509.0000    12453.0000     1759.0000     4397.5000     4762.2500     2568.7500       24.7500        0.0000        1.0000
   10533.00190    13337.5000    14139.2500     8513.0000    12457.0000     1667.0000     4330.5000     4684.2500     2476.7500       21.7500        0.0000        1.0000
   10533.40117    13330.5000    14131.2500     8507.0000    12448.0000     1572.0000     4258.5000     4603.2500     2381.7500       18.7500        0.0000        1.0000
   10533.80044    13324.5000    14123.2500     8504.0000    12441.0000     1458.0000     4163.5000     4497.2500     2265.7500       16.7500        0.0000        1.0000
   10534.19973    13329.5000    14133.2500     8508.0000    12450.0000     1335.0000     4069.5000     4385.2500     2137.7500       12.7500        0.0000        1.0000
   10534.59901    13315.5000    14114.2500     8498.0000    12438.0000     1211.0000     3960.5000     4257.2500     2000.7500       10.7500        0.0000        1.0000
   10534.99831    13327.5000    14131.2500     8506.0000    12449.0000     1095.0000     3857.5000     4137.2500     1873.7500        9.7500        0.0000        1.0000
   10535.39761    13328.5000    14128.2500     8505.0000    12443.0000      957.0000     3729.5000     3985.2500     1712.7500        5.7500        0.0000        1.0000
   10535.80306    13318.5000    14120.2500     8503.0000    12443.0000      832.0000     3596.5000     3828.2500     1553.7500        4.7500        0.0000        1.0000
   10536.20238    13305.5000    14101.2500     8488.0000    12422.0000      698.0000     3430.5000     3630.2500     1368.7500        2.7500        0.0000        1.0000
   10536.60170    13292.5000    14092.2500     8488.0000    12425.0000      571.0000     3243.5000     3406.2500     1168.7500        2.7500        0.0000        1.0000
   10537.00103    13306.5000    14107.2500     8494.0000    12429.0000      470.0000     3054.5000     3178.2500      982.7500        0.7500        0.0000        1.0000
   10537.40037    13303.5000    14101.2500     8491.0000    12425.0000      399.0000     2878.5000     2969.2500      829.7500        1.7500        0.0000        1.0000
   10537.79971    13315.5000    14112.2500     8496.0000    12428.0000      332.0000     2673.5000     2725.2500      670.7500       -0.2500        0.0000        1.0000
   10538.19906    13304.5000    14105.2500     8490.0000    12424.0000      286.0000     2474.5000     2498.2500      542.7500        0.7500        0.0000        1.0000
   10538.59842    13299.5000    14097.2500     8486.0000    12420.0000      247.0000     2246.5000     2239.2500      418.7500        0.7500        0.0000        1.0000
   10538.99779    13297.5000    14093.2500     8485.0000    12416.0000      215.0000     1981.5000     1954.2500      310.7500       -0.2500        0.0000        1.0000
   10539.39716    13310.5000    14108.2500     8491.0000    12423.0000      195.0000     1747.5000     1715.2500      235.7500       -0.2500        0.0000        1.0000
   10539.80268    13309.5000    14106.2500     8492.0000    12425.0000      180.0000     1487.5000     1468.2500      173.7500        0.7500        0.0000        1.0000
   10540.20207    13309.5000    14112.2500     8497.0000    12429.0000      170.0000     1244.5000     1258.2500      130.7500       -0.2500        0.0000        1.0000
   10540.60146    13303.5000    14106.2500     8492.0000    12421.0000      169.0000     1028.5000     1087.2500      100.7500       -0.2500        0.0000        1.0000
   10541.00086    13292.5000    14092.2500     8484.0000    12401.0000      171.0000      857.5000      964.2500       81.7500       -0.2500        0.0000        1.0000
   10541.40027    13300.5000    14103.2500     8490.0000    12405.0000      178.0000      707.5000      866.2500       67.7500       -0.2500        0.0000        1.0000
   10541.79968    13294.5000    14096.2500     8486.0000    12398.0000      191.0000      575.5000      787.2500       57.7500       -0.2500        0.0000        1.0000
   10542.19910    13293.5000    14085.2500     8477.0000    12388.0000      206.0000      472.5000      727.2500       50.7500       -0.2500        0.0000        1.0000
   10542.59853    13289.5000    14089.2500     8481.0000    12407.0000      227.0000      403.5000      693.2500       47.7500        0.7500        0.0000        1.0000
   10542.99797    13283.5000    14080.2500     8474.0000    12412.0000      252.0000      350.5000      666.2500       46.7500       -0.2500        0.0000        1.0000
   10543.39741    13302.5000    14099.2500     8480.0000    12430.0000      276.0000      320.5000      652.2500       49.7500       -0.2500        0.0000        1.0000
   10543.80301    13303.5000    14105.2500     8479.0000    12433.0000      308.0000      301.5000      640.2500       54.7500       -0.2500        0.0000        1.0000
   10544.20246    13304.5000    14102.2500     8473.0000    12426.0000      332.0000      298.5000      638.2500       63.7500       -0.2500        0.0000        1.0000
   10544.60193    13299.5000    14100.2500     8475.0000    12426.0000      361.0000      314.5000      644.2500       76.7500       -0.2500        0.0000        1.0000
   10545.00140    13297.5000    14097.2500     8477.0000    12423.0000      386.0000      347.5000      661.2500       92.7500       -0.2500        0.0000        1.0000
   10545.40087    13286.5000    14086.2500     8479.0000    12422.0000      411.0000      399.5000      686.2500      114.7500        0.7500        0.0000        1.0000
   10545.80036    13287.5000    14080.2500     8485.0000    12417.0000      440.0000      490.5000      730.2500      149.7500       -0.2500        0.0000        1.0000
   10546.19985    13281.5000    14064.2500     8482.0000    12411.0000      466.0000      610.5000      787.2500      193.7500        0.7500        0.0000        1.0000
   10546.59935    13273.5000    14054.2500     8477.0000    12406.0000      484.0000      736.5000      848.2500      239.7500        0.7500        0.0000        1.0000
   10546.99886    13248.5000    14028.2500     8462.0000    12391.0000      500.0000      870.5000      915.2500      288.7500       -0.2500        0.0000        1.0000
   10547.39837    13266.5000    14047.2500     8469.0000    12398.0000      513.0000     1004.5000      986.2500      339.7500        0.7500        0.0000        1.0000
   10547.79789    13274.5000    14070.2500     8476.0000    12409.0000      525.0000     1155.5000     1076.2500      402.7500       -0.2500        0.0000        1.0000
   10548.19741    13270.5000    14074.2500     8475.0000    12403.0000      534.0000     1289.5000     1166.2500      461.7500       -0.2500        0.0000        1.0000
   10548.59695    13265.5000    14079.2500     8475.0000    12403.0000      543.0000     1417.5000     1267.2500      520.7500        0.7500        0.0000        1.0000
   10549.00264    13251.5000    14073.2500     8470.0000    12400.0000      551.0000     1528.5000     1376.2500      579.7500        0.7500        0.0000        1.0000
   10549.40218    13247.5000    14068.2500     8469.0000    12394.0000      556.0000     1609.5000     1475.2500      629.7500        0.7500        0.0000        1.0000
   10549.80174    13246.5000    14063.2500     8467.0000    12396.0000      559.0000     1672.5000     1585.2500      676.7500        0.7500        0.0000        1.0000
   10550.20130    13235.5000    14040.2500     8452.0000    12371.0000      568.0000     1722.5000     1701.2500      719.7500        0.7500        0.0000        1.0000
   10550.60087    13257.5000    14058.2500     8466.0000    12392.0000      575.0000     1761.5000     1835.2500      763.7500        0.7500        0.0000        1.0000
   10551.00045    13258.5000    14057.2500     8462.0000    12385.0000      576.0000     1770.5000     1932.2500      789.7500        1.7500        0.0000        1.0000
   10551.40003    13209.5000    13996.2500     8429.0000    12343.0000      578.0000     1772.5000     2034.2500      812.7500        0.7500        0.0000        1.0000
   10551.79962    13247.5000    14045.2500     8456.0000    12380.0000      581.0000     1770.5000     2130.2500      832.7500        1.7500        0.0000        1.0000
   10552.19922    13245.5000    14041.2500     8455.0000    12379.0000      584.0000     1768.5000     2227.2500      850.7500        1.7500        0.0000        1.0000
   10552.59882    13255.5000    14056.2500     8462.0000    12386.0000      584.0000     1750.5000     2319.2500      864.7500        1.7500        0.0000        1.0000
   10552.99843    13262.5000    14059.2500     8465.0000    12391.0000      583.0000     1721.5000     2406.2500      873.7500        1.7500        0.0000        1.0000
   10553.39805    13279.5000    14078.2500     8477.0000    12407.0000      582.0000     1695.5000     2482.2500      881.7500        1.7500        0.0000        1.0000
   10553.79767    13247.5000    14039.2500     8455.0000    12380.0000      586.0000     1677.5000     2544.2500      890.7500        1.7500        0.0000        1.0000
   10554.19731    13261.5000    14056.2500     8464.0000    12388.0000      589.0000     1660.5000     2598.2500      897.7500        0.7500        0.0000        1.0000
   10554.59694    13245.5000    14039.2500     8452.0000    12375.0000      593.0000     1644.5000     2639.2500      902.7500        1.7500        0.0000        1.0000
   10555.00274    13272.5000    14072.2500     8473.0000    12401.0000      600.0000     1638.5000     2680.2500      909.7500        1.7500        0.0000        1.0000
   10555.40239    13249.5000    14042.2500     8457.0000    12379.0000      603.0000     1626.5000     2703.2500      914.7500        1.7500        0.0000        1.0000
   10555.80205    13265.5000    14060.2500     8468.0000    12395.0000      612.0000     1627.5000     2725.2500      922.7500        1.7500        0.0000        1.0000
   10556.20172    13251.5000    14045.2500     8458.0000    12381.0000      622.0000     1637.5000     2744.2500      927.7500        1.7500        0.0000        1.0000
   10556.60139    13258.5000    14058.2500     8465.0000    12391.0000      634.0000     1659.5000     2763.2500      939.7500        1.7500        0.0000        1.0000
   10557.00107    13257.5000    14050.2500     8459.0000    12378.0000      645.0000     1685.5000     2772.2500      947.7500        1.7500        0.0000        1.0000
   10557.40076    13244.5000    14039.2500     8456.0000    12381.0000      656.0000     1713.5000     2784.2500      958.7500        2.7500        0.0000        1.0000
   10557.80046    13245.5000    14040.2500     8454.0000    12379.0000      670.0000     1750.5000     2793.2500      968.7500        2.7500        0.0000        1.0000
   10558.20016    13252.5000    14050.2500     8459.0000    12386.0000      685.0000     1798.5000     2804.2500      981.7500        1.7500        0.0000        1.0000
   10558.59987    13242.5000    14041.2500     8456.0000    12388.0000      699.0000     1844.5000     2808.2500      994.7500        2.7500        0.0000        1.0000
   10558.99958    13232.5000    14028.2500     8445.0000    12365.0000      709.0000     1877.5000     2806.2500     1004.7500        2.7500        0.0000        1.0000
   10559.39931    13236.5000    14028.2500     8447.0000    12365.0000      719.0000     1915.5000     2805.2500     1015.7500        2.7500        0.0000        1.0000
   10559.79904    13223.5000    14014.2500     8439.0000    12354.0000      727.0000     1949.5000     2803.2500     1024.7500        1.7500        0.0000        1.0000
   10560.19877    13240.5000    14037.2500     8451.0000    12374.0000      735.0000     1976.5000     2801.2500     1033.7500        2.7500        0.0000        1.0000
   10560.59852    13236.5000    14030.2500     8447.0000    12365.0000      742.0000     2008.5000     2798.2500     1044.7500        2.7500        0.0000        1.0000
   10560.99827    13231.5000    14025.2500     8444.0000    12357.0000      746.0000     2037.5000     2790.2500     1049.7500        2.7500        0.0000        1.0000
   10561.39803    13215.5000    14007.2500     8433.0000    12347.0000      749.0000     2053.5000     2781.2500     1055.7500        2.7500        0.0000        1.0000
   10561.79779    13231.5000    14027.2500     8446.0000    12364.0000      752.0000     2078.5000     2780.2500     1062.7500        2.7500        0.0000        1.0000
   10562.19756    13226.5000    14017.2500     8439.0000    12358.0000      754.0000     2100.5000     2772.2500     1065.7500        2.7500        0.0000        1.0000
   10562.59734    13220.5000    14011.2500     8435.0000    12344.0000      753.0000     2112.5000     2764.2500     1066.7500        2.7500        0.0000        1.0000
   10562.99713    13196.5000    13984.2500     8423.0000    12332.0000      753.0000     2132.5000     2764.2500     1067.7500        2.7500        0.0000        1.0000
   10563.40307    13230.5000    14024.2500     8442.0000    12356.0000      754.0000     2153.5000     2776.2500     1071.7500        2.7500        0.0000        1.0000
   10563.80287    13197.5000    13988.2500     8424.0000    12333.0000      751.0000     2163.5000     2772.2500     1069.7500        2.7500        0.0000        1.0000
   10564.20268    13222.5000    14013.2500     8435.0000    12346.0000      750.0000     2184.5000     2782.2500     1066.7500        2.7500        0.0000        1.0000
   10564.60249    13232.5000    14025.2500     8442.0000    12356.0000      746.0000     2203.5000     2796.2500     1067.7500        2.7500        0.0000        1.0000
   10566.07879    13220.5000    14011.2500     8433.0000    12339.0000      737.0000     2242.5000     2848.2500     1053.7500        2.7500        0.0000        1.0000
   10567.17377    13197.5000    13993.2500     8425.0000    12335.0000      735.0000     2257.5000     2890.2500     1048.7500        2.7500        0.0000        1.0000
   10568.29342    13183.5000    13970.2500     8411.0000    12311.0000      738.0000     2264.5000     2932.2500     1042.7500        2.7500        0.0000        1.0000
   10569.43157    13187.5000    13978.2500     8413.0000    12317.0000      746.0000     2273.5000     2975.2500     1041.7500        2.7500        0.0000        1.0000
   10570.58208    13203.5000    13995.2500     8424.0000    12327.0000      756.0000     2286.5000     3010.2500     1041.7500        2.7500        0.0000        1.0000
   10571.75727    13206.5000    13997.2500     8422.0000    12322.0000      766.0000     2299.5000     3024.2500     1039.7500        2.7500        0.0000        1.0000
   10572.95098    13204.5000    13994.2500     8423.0000    12326.0000      774.0000     2314.5000     3016.2500     1040.7500        2.7500        0.0000        1.0000
   10574.16320    13210.5000    14004.2500     8428.0000    12333.0000      781.0000     2337.5000     2983.2500     1037.7500        2.7500        0.0000        1.0000
   10575.39396    13207.5000    13999.2500     8425.0000    12326.0000      789.0000     2363.5000     2915.2500     1032.7500        2.7500        0.0000        1.0000
   10576.64324    13192.5000    13984.2500     8416.0000    12312.0000      798.0000     2384.5000     2856.2500     1025.7500        2.7500        0.0000        1.0000
   10577.91106    13175.5000    13961.2500     8402.0000    12299.0000      808.0000     2407.5000     2810.2500     1014.7500        2.7500        0.0000        1.0000
   10579.20356    13200.5000    13990.2500     8418.0000    12315.0000      822.0000     2435.5000     2812.2500     1004.7500        2.7500        0.0000        1.0000
   10580.50845    13170.5000    13951.2500     8393.0000    12280.0000      826.0000     2437.5000     2821.2500      988.7500        3.7500        0.0000        1.0000
   10581.83188    13204.5000    13987.2500     8411.0000    12295.0000      832.0000     2451.5000     2853.2500      972.7500        3.7500        0.0000        1.0000
   10583.18001    13213.5000    13985.2500     8401.0000    12266.0000      830.0000     2445.5000     2861.2500      950.7500        2.7500        0.0000        1.0000
   10584.54668    13174.5000    13940.2500     8376.0000    12228.0000      823.0000     2426.5000     2850.2500      921.7500        2.7500        0.0000        1.0000
   10585.92575    13202.5000    13971.2500     8394.0000    12239.0000      818.0000     2408.5000     2832.2500      898.7500        2.7500        0.0000        1.0000
   10587.32954    13175.5000    13946.2500     8378.0000    12183.0000      809.0000     2381.5000     2795.2500      867.7500        2.7500        0.0000        1.0000
   10588.75188    13173.5000    13946.2500     8373.0000    11985.0000      801.0000     2353.5000     2754.2500      829.7500        1.7500        0.0000        1.0000
   10590.19278    13152.5000    13918.2500     8350.0000    11251.0000      796.0000     2325.5000     2702.2500      763.7500        1.7500        0.0000        1.0000
   10591.65225    13158.5000    13921.2500     8336.0000    11536.0000      792.0000     2301.5000     2659.2500      773.7500        1.7500        0.0000        1.0000
   10593.13028    13100.5000    13856.2500     8213.0000    12263.0000      786.0000     2270.5000     2594.2500      814.7500        1.7500        0.0000        1.0000
   10594.62689    13117.5000    13863.2500     7764.0000    12335.0000      784.0000     2253.5000     2459.2500      826.7500        2.7500        0.0000        1.0000
   10596.52397    13151.9125    13857.8363     7958.3900    12373.4650      777.1950     2219.5175     2341.3612      841.4188        2.6988        0.0000        1.0050
   10598.06391    13310.5025    13847.8432     8578.9260    12536.1810      784.6630     2207.3595     2535.8283      872.6237        1.5758        0.0000        1.0170
   10599.62245    13445.9750    13142.7675     8704.3400    12692.7900      793.1700     2101.6050     2541.9175      909.7625        2.4425        0.0000        1.0300
   10601.19956    13563.5650    13563.7745     8792.8760    12843.5060      798.6380     2087.4470     2526.3845      940.9675        3.3195        0.0000        1.0420
   10602.79527    13466.0375    14732.6987     8865.2900    12950.1150      794.1450     2282.6925     2523.4738      961.1063        2.1863        0.0000        1.0550
   10604.41574    12890.6275    15025.7057     9003.8260    13150.8310      754.6130     2314.5345     2566.9407      992.3112        3.0633        0.0000        1.0670
   10606.04865    13189.1000    15160.6300     9100.2400    13302.4400      788.1200     2319.7800     2626.0300     1026.4500        2.9300        0.0000        1.0800
   10607.70632    14464.6900    15308.6370     9200.7760    13461.1560      857.5880     2330.6220     2710.4970     1059.6550        2.8070        0.0000        1.0920
   10609.37643    14644.1625    15437.5613     9283.1900    13581.7650      870.0950     2337.8675     2794.5863     1081.7938        2.6738        0.0000        1.1050
   10611.07132    14752.7525    15593.5683     9386.7260    13740.4810      880.5630     2351.7095     2890.0532     1108.9987        3.5508        0.0000        1.1170
   10612.78482    14925.2250    15791.4925     9503.1400    13911.0900      894.0700     2374.9550     2985.1425     1136.1375        3.4175        0.0000        1.1300
   10614.51695    15010.8150    15928.4995     9593.6760    14045.8060      906.5380     2393.7970     3075.6095     1156.3425        3.2945        0.0000        1.1420
   10616.26769    15142.2875    16007.4237     9639.0900    14122.4150      919.0450     2407.0425     3135.6988     1169.4813        3.1612        0.0000        1.1550
   10618.03707    15288.8775    16205.4307     9762.6260    14304.1310      936.5130     2443.8845     3207.1658     1189.6862        4.0382        0.0000        1.1670
   10619.82508    15524.3500    16452.3550     9909.0400    14498.7400      958.0200     2487.1300     3266.2550     1205.8250        3.9050        0.0000        1.1800
   10621.63172    15685.9400    16626.3620    10009.5760    14643.4560      976.4880     2520.9720     3294.7220     1218.0300        3.7820        0.0000        1.1920
   10623.45700    15837.4125    16805.2863    10118.9900    14806.0650      996.9950     2560.2175     3325.8112     1233.1688        3.6487        0.0000        1.2050
   10625.30093    15955.0025    16889.2932    10165.5260    14890.7810     1010.4630     2578.0595     3325.2782     1233.3737        3.5257        0.0000        1.2170
   10627.16351    16141.4750    17120.2175    10300.9400    15057.3900     1024.9700     2621.3050     3364.3675     1239.5125        3.3925        0.0000        1.2300
   10629.05091    16316.0650    17286.2245    10410.4760    15221.1060     1039.4380     2671.1470     3429.8345     1251.7175        4.2695        0.0000        1.2420
   10630.95080    16479.5375    17463.1488    10499.8900    15363.7150     1047.9450     2716.3925     3485.9237     1257.8563        3.1363        0.0000        1.2550
   10632.87552    16628.1275    17626.1558    10605.4260    15491.4310     1050.4130     2760.2345     3551.3908     1263.0612        4.0133        0.0000        1.2670
   10634.81274    16806.6000    17809.0800    10711.8400    15657.0400     1052.9200     2803.4800     3610.4800     1275.2000        3.8800        0.0000        1.2800
   10636.77480    16894.1900    17909.0870    10780.3760    15764.7560     1053.3880     2836.3220     3655.9470     1283.4050        3.7570        0.0000        1.2920
   10638.74937    17044.6625    18067.0112    10874.7900    15902.3650     1057.8950     2880.5675     3700.0363     1297.5438        3.6238        0.0000        1.3050
   10640.74879    17197.2525    18215.0183    10957.3260    16021.0810     1064.3630     2926.4095     3731.5032     1310.7487        3.5008        0.0000        1.3170
   10642.76689    17376.7250    18406.9425    11076.7400    16196.6900     1075.8700     2978.6550     3764.5925     1327.8875        3.3675        0.0000        1.3300
   10644.80369    17528.3150    18580.9495    11182.2760    16349.4060     1083.3380     3025.4970     3780.0595     1343.0925        3.2445        0.0000        1.3420
   10646.85918    17719.7875    18780.8737    11298.6900    16514.0150     1091.8450     3076.7425     3797.1488     1354.2313        4.1113        0.0000        1.3550
   10648.93337    17884.3775    18956.8808    11404.2260    16662.7310     1102.3130     3123.5845     3817.6157     1364.4362        3.9883        0.0000        1.3670
   10651.02627    18081.8500    19156.8050    11517.6400    16820.3400     1113.8200     3172.8300     3851.7050     1369.5750        3.8550        0.0000        1.3800
   10653.13788    18199.4400    19284.8120    11599.1760    16945.0560     1117.2880     3208.6720     3875.1720     1366.7800        3.7320        0.0000        1.3920
   10655.26820    18379.9125    19474.7363    11707.5900    17099.6650     1121.7950     3248.9175     3909.2613     1362.9188        3.5987        0.0000        1.4050
   10657.41725    18535.5025    19629.7432    11794.1260    17212.3810     1122.2630     3283.7595     3939.7283     1356.1237        3.4757        0.0000        1.4170
   10659.58502    18667.9750    19771.6675    11882.5400    17336.9900     1117.7700     3294.0050     3947.8175     1344.2625        4.3425        0.0000        1.4300
   10661.77769    18845.5650    19956.6745    11990.0760    17475.7060     1128.2380     3344.8470     4000.2845     1352.4675        4.2195        0.0000        1.4420
   10663.98293    19003.0375    20123.5988    12088.4900    17585.3150     1136.7450     3379.0925     4030.3737     1356.6063        4.0862        0.0000        1.4550
   10666.20690    19147.6275    20284.6057    12181.0260    17350.0310     1149.2130     3418.9345     4060.8407     1339.8112        3.9632        0.0000        1.4670
   10668.45580    19284.1000    20422.5300    12254.4400    17348.6400     1159.7200     3436.1800     4057.9300     1345.9500        3.8300        0.0000        1.4800
   10670.71727    19436.6900    20586.5370    12320.9760    18184.3560     1179.1880     3462.0220     4056.3970     1410.1550        3.7070        0.0000        1.4920
   10673.00368    19580.1625    20729.4613    12124.3900    18301.9650     1200.6950     3485.2675     4005.4862     1428.2938        4.5738        0.0000        1.5050
   10675.30267    19743.7525    20887.4683    12146.9260    18428.6810     1227.1630     3510.1095     3928.9533     1446.4987        4.4508        0.0000        1.5170
   10677.62661    19884.2250    20957.3925    12706.3400    18494.2900     1255.6700     3514.3550     4104.0425     1459.6375        4.3175        0.0000        1.5300
   10679.96932    19998.8150    20635.3995    12819.8760    18538.0060     1285.1380     3467.1970     4159.5095     1474.8425        4.1945        0.0000        1.5420
   10682.32462    20159.2875    20763.3237    12897.2900    17888.6150     1310.6450     3427.4425     4181.5988     1425.9813        4.0613        0.0000        1.5550
   10684.70489    20191.8775    21705.3308    12927.8260    17606.3310     1324.1130     3610.2845     4208.0657     1434.1862        4.9383        0.0000        1.5670
   10687.10395    19787.3500    21852.2550    12641.2400    19591.9400     1290.6200     3621.5300     4168.1550     1594.3250        4.8050        0.0000        1.5800
   10689.52181    19954.9400    21930.2620    12118.7760    19613.6560     1307.0880     3618.3720     3858.6220     1605.5300        4.6820        0.0000        1.5920
   10691.95847    20978.4125    21563.1862    13458.1900    19700.2650     1362.5950     3566.6175     4383.7113     1625.6688        4.5488        0.0000        1.6050
   10694.40774    21064.0025    20246.1933    13601.7260    19697.9810     1360.0630     3346.4595     4436.1782     1634.8737        5.4258        0.0000        1.6170
   10696.88202    20964.4750    22598.1175    13637.1400    19922.5900     1350.5700     3699.7050     4436.2675     1661.0125        4.2925        0.0000        1.6300
   10699.37511    19406.0650    22856.1245    13727.6760    20076.3060     1240.0380     3743.5470     4464.7345     1679.2175        5.1695        0.0000        1.6420
   10701.88702    21534.5375    22992.0488    13831.0900    20232.9150     1389.5450     3760.7925     4503.8237     1700.3563        5.0362        0.0000        1.6550
   10704.41776    21833.1275    23115.0557    13915.6260    20367.6310     1398.0130     3773.6345     4548.2908     1714.5612        4.9132        0.0000        1.6670
   10706.97352    21967.6000    23292.9800    14028.0400    20523.2400     1401.5200     3795.8800     4611.3800     1731.7000        4.7800        0.0000        1.6800
   10709.54194    22116.1900    23450.9870    14120.5760    20649.9560     1408.9880     3825.7220     4675.8470     1744.9050        5.6570        0.0000        1.6920
   10712.12920    22262.6625    23590.9113    14188.9900    20733.5650     1410.4950     3835.9675     4718.9362     1748.0438        5.5237        0.0000        1.7050
   10714.73532    22284.2525    23738.9182    14292.5260    20894.2810     1418.9630     3884.8095     4816.4032     1769.2487        5.4007        0.0000        1.7170
   10717.36029    22577.7250    23915.8425    14323.9400    21053.8900     1439.4700     3917.0550     4872.4925     1782.3875        5.2675        0.0000        1.7300
   10720.01032    22717.3150    24084.8495    14488.4760    21130.6060     1448.9380     3955.8970     4976.9595     1791.5925        5.1445        0.0000        1.7420
   10722.67303    22851.7875    24239.7738    14584.8900    21322.2150     1453.4450     3984.1425     5040.0487     1806.7313        5.0113        0.0000        1.7550
   10725.35461    23031.3775    24431.7808    14699.4260    21480.9310     1458.9130     4023.9845     5093.5158     1821.9362        4.8882        0.0000        1.7670
   10728.06127    23196.8500    24599.7050    14796.8400    21623.5400     1459.4200     4063.2300     5133.6050     1833.0750        5.7550        0.0000        1.7800
   10730.78062    23305.4400    24730.7120    14881.3760    21753.2560     1459.8880     4096.0720     5159.0720     1848.2800        5.6320        0.0000        1.7920
   10733.51887    23488.9125    24914.6362    14991.7900    21903.8650     1467.3950     4133.3175     5182.1613     1861.4188        5.4988        0.0000        1.8050
   10736.28221    23666.5025    25111.6433    15108.3260    22068.5810     1482.8630     4175.1595     5210.6282     1876.6237        5.3758        0.0000        1.8170
   10739.05826    23786.9750    25234.5675    15182.7400    22175.1900     1506.3700     4211.4050     5226.7175     1886.7625        5.2425        0.0000        1.8300
   10741.85943    23943.5650    25406.5745    15290.2760    22335.9060     1526.8380     4234.2470     5230.1845     1891.9675        5.1195        0.0000        1.8420
   10744.67331    24085.0375    25548.4987    15375.6900    22461.5150     1563.3450     4286.4925     5271.2738     1906.1063        4.9863        0.0000        1.8550
   10747.51233    24193.6275    25660.5058    15440.2260    22566.2310     1596.8130     4338.3345     5322.7407     1920.3112        5.8633        0.0000        1.8670
   10750.36407    24360.1000    25846.4300    15552.6400    22723.8400     1622.3200     4384.5800     5376.8300     1932.4500        5.7300        0.0000        1.8800
   10753.24095    24509.6900    25996.4370    15638.1760    22846.5560     1638.7880     4427.4220     5423.2970     1938.6550        5.6070        0.0000        1.8920
   10756.13058    24662.1625    26165.3613    15742.5900    22999.1650     1654.2950     4474.6675     5468.3862     1952.7938        5.4737        0.0000        1.9050
   10759.04536    24788.7525    26300.3682    15831.1260    23131.8810     1665.7630     4512.5095     5500.8533     1963.9987        6.3507        0.0000        1.9170
   10761.97290    24974.2250    26500.2925    15943.5400    23293.4900     1686.2700     4566.7550     5550.9425     1982.1375        6.2175        0.0000        1.9300
   10764.92560    25109.8150    26649.2995    16036.0760    23432.2060     1701.7380     4604.5970     5580.4095     1995.3425        6.0945        0.0000        1.9420
   10767.89728    25225.2875    26775.2238    16111.4900    23554.8150     1721.2450     4643.8425     5619.4987     2010.4813        6.9612        0.0000        1.9550
   10770.88173    25385.8775    26948.2307    16216.0260    23676.5310     1735.7130     4689.6845     5662.9657     2027.6862        6.8382        0.0000        1.9670
   10773.89136    25522.3500    27082.1550    16291.4400    23832.1400     1742.2200     4725.9300     5693.0550     2044.8250        6.7050        0.0000        1.9800
   10776.91379    25651.9400    27252.1620    16401.9760    23969.8560     1745.6880     4766.7720     5734.5220     2063.0300        6.5820        0.0000        1.9920
   10779.96142    25776.4125    27361.0863    16466.3900    24067.4650     1743.1950     4800.0175     5762.6112     2081.1687        6.4488        0.0000        2.0050
   10783.02805    25955.0025    27560.0933    16586.9260    24246.1810     1739.6630     4841.8595     5807.0783     2107.3738        6.3257        0.0000        2.0170
   10786.10749    26117.4750    27732.0175    16690.3400    24393.7900     1738.1700     4882.1050     5850.1675     2134.5125        6.1925        0.0000        2.0300
   10789.21215    26253.0650    27872.0245    16768.8760    24505.5060     1738.6380     4917.9470     5882.6345     2155.7175        6.0695        0.0000        2.0420
   10792.33584    26382.5375    28004.9487    16855.2900    24624.1150     1742.1450     4947.1925     5905.7237     2176.8562        6.9362        0.0000        2.0550
   10795.47856    26499.1275    28127.9558    16921.8260    24689.8310     1747.6130     4971.0345     5916.1907     2193.0613        6.8132        0.0000        2.0670
   10798.63411    26631.6000    28269.8800    17002.2400    24700.4400     1761.1200     5002.2800     5933.2800     2205.2000        6.6800        0.0000        2.0800
   10801.81492    26813.1900    28452.8870    17089.7760    23935.1560     1768.5880     5013.1220     5926.7470     2136.4050        6.5570        0.0000        2.0920
   10805.01478    26964.6625    28616.8112    17154.1900    25384.7650     1785.0950     5038.3675     5933.8363     2261.5437        7.4238        0.0000        2.1050
   10808.22749    27140.2525    28773.8183    16675.7260    25573.4810     1817.5630     5083.2095     5853.3032     2294.7488        6.3008        0.0000        2.1170
   10811.46548    27265.7250    28870.7425    17386.1400    25659.0900     1841.0700     5112.4550     5975.3925     2315.8875        7.1675        0.0000        2.1300
   10814.72254    27393.3150    28393.7495    17657.6760    25745.8060     1859.5380     5045.2970     6179.8595     2322.0925        7.0445        0.0000        2.1420
   10817.99247    27495.7875    28712.6738    17720.0900    25893.4150     1879.0450     5031.5425     6239.9488     2336.2312        7.9113        0.0000        2.1550
   10821.28770    27318.3775    29638.6807    17791.6260    26010.1310     1877.5130     5231.3845     6283.4158     2341.4363        7.7883        0.0000        2.1670
   10824.60203    27053.8500    29702.6050    17865.0400    26132.7400     1879.0200     5240.6300     6343.5050     2356.5750        7.6550        0.0000        2.1800
   10827.92924    28180.4400    29851.6120    17962.5760    26273.4560     1960.4880     5271.4720     6413.9720     2370.7800        7.5320        0.0000        2.1920
   10831.28178    28229.9125    29945.5363    18021.9900    26369.0650     1973.9950     5304.7175     6475.0612     2387.9187        7.3987        0.0000        2.2050
   10834.64722    28371.5025    30123.5432    18135.5260    26402.7810     1981.4630     5321.5595     6515.5282     2387.1238        8.2757        0.0000        2.2170
   10838.03800    28472.9750    30121.4675    18212.9400    26649.3900     2001.9700     5347.8050     6585.6175     2426.2625        8.1425        0.0000        2.2300
   10841.44791    28678.5650    30449.4745    18322.4760    26795.1060     2024.4380     5418.6470     6632.0845     2450.4675        8.0195        0.0000        2.2420
   10844.87074    28752.0375    30491.3988    18396.8900    26929.7150     2032.9450     5437.8925     6655.1737     2475.6062        7.8863        0.0000        2.2550
   10848.31894    28966.6275    30747.4058    18505.4260    27068.4310     2050.4130     5493.7345     6691.6408     2496.8113        8.7632        0.0000        2.2670
   10851.78007    29117.1000    30922.3300    18614.8400    27230.0400     2057.9200     5527.9800     6727.7300     2516.9500        7.6300        0.0000        2.2800
   10855.26659    29295.6900    31118.3370    18725.3760    27388.7560     2073.3880     5581.8220     6793.1970     2539.1550        7.5070        0.0000        2.2920
   10858.76605    29412.1625    31254.2612    18806.7900    27511.3650     2074.8950     5616.0675     6840.2862     2553.2937        8.3737        0.0000        2.3050
   10862.29091    29572.7525    31367.2683    18841.3260    27610.0810     2081.3630     5652.9095     6875.7532     2566.4988        8.2507        0.0000        2.3170
   10865.82872    29707.2250    31401.1925    18881.7400    27483.6900     2080.8700     5670.1550     6909.8425     2556.6375        8.1175        0.0000        2.3300
   10869.39196    29785.8150    31556.1995    19092.2760    27932.4060     2078.3380     5708.9970     7001.3095     2596.8425        8.9945        0.0000        2.3420
   10872.96816    29989.2875    31880.1237    19190.6900    28081.0150     2085.8450     5776.2425     7047.3988     2612.9812        7.8613        0.0000        2.3550
   10876.56981    30122.8775    32007.1308    19224.2260    28080.7310     2095.3130     5816.0845     7085.8657     2618.1863        8.7383        0.0000        2.3670
   10880.18443    30286.3500    32183.0550    19374.6400    28348.3400     2112.8200     5865.3300     7164.9550     2649.3250        8.6050        0.0000        2.3800
   10883.81828    30396.9400    32286.0620    19427.1760    28417.0560     2136.2880     5908.1720     7216.4220     2668.5300        9.4820        0.0000        2.3920
   10887.47758    30559.4125    32459.9863    19538.5900    28577.6650     2169.7950     5959.4175     7277.5113     2691.6687        8.3488        0.0000        2.4050
   10891.14990    30744.0025    32665.9932    19654.1260    28750.3810     2206.2630     6021.2595     7337.9783     2716.8738        9.2258        0.0000        2.4170
   10894.84145    30863.4750    32797.9175    19745.5400    28897.9900     2228.7700     6053.5050     7364.0675     2737.0125        9.0925        0.0000        2.4300
   10898.55849    30968.0650    32911.9245    19812.0760    28997.7060     2253.2380     6097.3470     7391.5345     2755.2175        9.9695        0.0000        2.4420
   10902.28856    31143.5375    33112.8487    19934.4900    29187.3150     2279.7450     6159.5925     7444.6237     2786.3562        9.8362        0.0000        2.4550
   10906.03790    31306.1275    33280.8558    20033.0260    29330.0310     2296.2130     6202.4345     7472.0907     2807.5613        9.7132        0.0000        2.4670
   10909.80651    31461.6000    33438.7800    20126.4400    29462.6400     2316.7200     6254.6800     7515.1800     2830.7000       10.5800        0.0000        2.4800
   10913.59440    31587.1900    33587.7870    20220.9760    29613.3560     2332.1880     6301.5220     7563.6470     2857.9050       10.4570        0.0000        2.4920
   10917.40159    31726.6625    33734.7113    20313.3900    29748.9650     2342.6950     6345.7675     7605.7362     2882.0437       10.3238        0.0000        2.5050
   10921.22807    31885.2525    33913.7182    20415.9260    29896.6810     2356.1630     6397.6095     7650.2033     2906.2488       10.2007        0.0000        2.5170
   10925.07386    32023.7250    34059.6425    20506.3400    30036.2900     2372.6700     6445.8550     7691.2925     2932.3875       10.0675        0.0000        2.5300
   10928.93897    32148.3150    34155.6495    20502.8760    30066.0060     2393.1380     6484.6970     7700.7595     2945.5925        9.9445        0.0000        2.5420
   10932.82340    32292.7875    34338.5738    20674.2900    30281.6150     2409.6450     6529.9425     7768.8487     2972.7312       10.8112        0.0000        2.5550
   10936.72716    32413.3775    34472.5808    20752.8260    30400.3310     2421.1130     6561.7845     7810.3157     2986.9363       10.6882        0.0000        2.5670
   10940.65026    32545.8500    34609.5050    20835.2400    30512.9400     2429.6200     6600.0300     7862.4050     3004.0750       10.5550        0.0000        2.5800
   10944.58646    32589.4400    34585.5120    20840.7760    30576.6560     2432.0880     6604.8720     7885.8720     3016.2800       10.4320        0.0000        2.5920
   10948.54826    32838.9125    34929.4362    21032.1900    30811.2650     2464.5950     6712.1175     8025.9613     3058.4187       11.2988        0.0000        2.6050
   10952.52943    32989.5025    35101.4432    21137.7260    30970.9810     2472.0630     6748.9595     8088.4282     3077.6238       11.1758        0.0000        2.6170
   10956.52372    33125.9750    35235.3675    21216.1400    31086.5900     2483.5700     6791.2050     8151.5175     3102.7625       11.0425        0.0000        2.6300
   10960.54364    33228.5650    35367.3745    21298.6760    31209.3060     2484.0380     6821.0470     8193.9845     3123.9675       11.9195        0.0000        2.6420
   10964.57669    33368.0375    35401.2988    21336.0900    31342.9150     2492.5450     6850.2925     8229.0737     3155.1062       10.7863        0.0000        2.6550
   10968.63540    33522.6275    35656.3057    21467.6260    31442.6310     2507.0130     6916.1345     8294.5408     3177.3113       11.6633        0.0000        2.6670
   10972.70725    32947.1000    35826.2300    21558.0400    31557.2400     2465.5200     6949.3800     8314.6300     3200.4500       11.5300        0.0000        2.6800
   10976.79852    33776.6900    35357.2370    21625.5760    31656.9560     2530.9880     6882.2220     8348.0970     3226.6550       11.4070        0.0000        2.6920
   10980.91546    33885.1625    36015.1612    21664.9900    31206.5650     2550.4950     7001.4675     8361.1862     3189.7937       11.2737        0.0000        2.7050
   10985.04558    34107.7525    36249.1683    21799.5260    31872.2810     2590.9630     7066.3095     8434.6532     3268.9988       11.1507        0.0000        2.7170
   10989.19513    34264.2250    36423.0925    21899.9400    32011.8900     2634.4700     7124.5550     8507.7425     3301.1375       12.0175        0.0000        2.7300
   10993.36413    33873.8150    36122.0995    21750.4760    31782.6060     2624.9380     7072.3970     8471.2095     3282.3425       12.8945        0.0000        2.7420
   10997.55258    34578.2875    36752.0238    22099.8900    32284.2150     2701.4450     7213.6425     8635.2987     3339.4812       13.7613        0.0000        2.7550
   11001.76049    34683.8775    36863.0307    22158.4260    32357.9310     2725.9130     7247.4845     8690.7658     3352.6863       12.6382        0.0000        2.7670
   11005.98788    34856.3500    37044.9550    22262.8400    32499.5400     2752.4200     7298.7300     8777.8550     3376.8250       13.5050        0.0000        2.7800
   11010.23474    34912.9400    37091.9620    22271.3760    32418.2560     2772.8880     7327.5720     8835.3220     3378.0300       13.3820        0.0000        2.7920
   11014.49483    35149.4125    37358.8863    22453.7900    32780.8650     2799.3950     7384.8175     8932.4112     3416.1687       13.2487        0.0000        2.8050
   11018.78068    34873.0025    37110.8933    22380.3260    32874.5810     2780.8630     7350.6595     8928.8782     3437.3738       13.1257        0.0000        2.8170
   11023.08604    35380.4750    37634.8175    22634.7400    33057.1900     2821.3700     7475.9050     9056.9675     3462.5125       13.9925        0.0000        2.8300
   11027.40464    35162.0650    37795.8245    22761.2760    33228.9060     2798.8380     7528.7470     9129.4345     3489.7175       13.8695        0.0000        2.8420
   11031.74903    35743.5375    37977.7487    22593.6900    33424.5150     2850.3450     7588.9925     9054.5238     3523.8562       13.7363        0.0000        2.8550
   11036.10668    35850.1275    38127.7557    22918.2260    32897.2310     2854.8130     7635.8345     9224.9908     3477.0613       12.6133        0.0000        2.8670
   11040.48387    36001.6000    38286.6800    23017.6400    33578.8400     2866.3200     7697.0800     9292.0800     3567.2000       13.4800        0.0000        2.8800
   11044.88687    36159.1900    38446.6870    23107.1760    33693.5560     2873.7880     7739.9220     9329.5470     3592.4050       14.3570        0.0000        2.8920
   11049.30317    36276.6625    38559.6113    23173.5900    33784.1650     2886.2950     7791.1675     9372.6362     3617.5437       14.2238        0.0000        2.9050
   11053.73902    36396.2525    38694.6182    23256.1260    33901.8810     2897.7630     7838.0095     9411.1033     3643.7488       14.1008        0.0000        2.9170
   11058.19445    36527.7250    38822.5425    23329.5400    33995.4900     2912.2700     7889.2550     9456.1925     3671.8875       13.9675        0.0000        2.9300
   11062.66946    36648.3150    38948.5495    23402.0760    34099.2060     2928.7380     7932.0970     9489.6595     3699.0925       14.8445        0.0000        2.9420
   11067.15779    36785.7875    39096.4737    23491.4900    34219.8150     2951.2450     7992.3425     9536.7487     3733.2312       14.7112        0.0000        2.9550
   11071.67199    36854.3775    39173.4808    23539.0260    34290.5310     2965.7130     8018.1845     9550.2157     3751.4363       14.5882        0.0000        2.9670
   11076.20580    36971.8500    39294.4050    23608.4400    34392.1400     2989.2200     8067.4300     9605.3050     3782.5750       15.4550        0.0000        2.9800
   11080.75294    37151.4400    39490.4120    23724.9760    34548.8560     3009.6880     8118.2720     9670.7720     3808.7800       15.3320        0.0000        2.9920
   11085.32600    37342.9125    39688.3363    23835.3900    34699.4650     3045.1950     8197.5175     9776.8612     3844.9187       15.1988        0.0000        3.0050
   11089.91240    37417.5025    39771.3432    23887.9260    34793.1810     3067.6630     8246.3595     9846.3283     3871.1238       16.0757        0.0000        3.0170
   11094.51845    37559.9750    39922.2675    23979.3400    34916.7900     3098.1700     8307.6050     9925.4175     3895.2625       15.9425        0.0000        3.0300
   11099.14415    37690.5650    40057.2745    24056.8760    35028.5060     3123.6380     8349.4470     9978.8845     3913.4675       15.8195        0.0000        3.0420
   11103.78950    37836.0375    40219.1988    24158.2900    35176.1150     3157.1450     8413.6925    10059.9738     3948.6062       16.6862        0.0000        3.0550
   11108.45453    37971.6275    40363.2058    24242.8260    35296.8310     3185.6130     8461.5345    10116.4407     3973.8113       16.5632        0.0000        3.0670
   11113.13924    38082.1000    40494.1300    24327.2400    35428.4400     3222.1200     8529.7800    10197.5300     4005.9500       16.4300        0.0000        3.0800
   11117.84363    38183.6900    40595.1370    24385.7760    35505.1560     3248.5880     8576.6220    10237.9970     4028.1550       16.3070        0.0000        3.0920
   11122.56772    38325.1625    40758.0612    24488.1900    35659.7650     3277.0950     8632.8675    10289.0863     4064.2937       17.1738        0.0000        3.1050
   11127.30523    38495.7525    40937.0682    24589.7260    35795.4810     3301.5630     8692.7095    10344.5533     4097.4987       17.0508        0.0000        3.1170
   11132.06874    38595.2250    41042.9925    24656.1400    35898.0900     3310.0700     8735.9550    10371.6425     4121.6375       16.9175        0.0000        3.1300
   11136.84568    38730.8150    41184.9995    24735.6760    36001.8060     3321.5380     8789.7970    10421.1095     4150.8425       17.7945        0.0000        3.1420
   11141.64235    38850.2875    41303.9238    24802.0900    36089.4150     3334.0450     8836.0425    10466.1987     4175.9812       17.6613        0.0000        3.1550
   11146.45876    39060.8775    41519.9307    24926.6260    36244.1310     3354.5130     8906.8845    10543.6658     4207.1862       17.5383        0.0000        3.1670
   11151.29492    39135.3500    41608.8550    24987.0400    36335.7400     3363.0200     8948.1300    10586.7550     4234.3250       18.4050        0.0000        3.1800
   11156.15084    39271.9400    41745.8620    25056.5760    36430.4560     3369.4880     8981.9720    10618.2220     4248.5300       18.2820        0.0000        3.1920
   11161.02653    39391.4125    41861.7862    25127.9900    36526.0650     3374.9950     9020.2175    10667.3112     4270.6687       19.1487        0.0000        3.2050
   11165.92199    39483.0025    41964.7933    25186.5260    36622.7810     3385.4630     9062.0595    10741.7782     4298.8737       19.0258        0.0000        3.2170
   11170.83094    39614.4750    42132.7175    25299.9400    36797.3900     3405.9700     9124.3050    10852.8675     4333.0125       18.8925        0.0000        3.2300
   11175.76599    39757.0650    42279.7245    25386.4760    36921.1060     3432.4380     9199.1470    10972.3345     4368.2175       18.7695        0.0000        3.2420
   11180.71454    39720.5375    42434.6488    25482.8900    37052.7150     3438.9450     9257.3925    11071.4237     4396.3562       19.6363        0.0000        3.2550
   11185.68290    40063.1275    42583.6557    25548.4260    37170.4310     3490.4130     9320.2345    11158.8908     4434.5612       18.5132        0.0000        3.2670
   11190.67108    40188.6000    42749.5800    25673.8400    37118.0400     3521.9200     9376.4800    11248.9800     4446.7000       19.3800        0.0000        3.2800
   11195.67909    40351.1900    42920.5870    25766.3760    37461.7560     3552.3880     9438.3220    11311.4470     4497.9050       19.2570        0.0000        3.2920
   11200.70694    40508.6625    43104.5113    25875.7900    37618.3650     3583.8950     9507.5675    11377.5363     4541.0437       20.1238        0.0000        3.3050
   11205.75465    40610.2525    43212.5183    25939.3260    37712.0810     3609.3630     9560.4095    11414.0032     4571.2487       20.0007        0.0000        3.3170
   11210.81590    40729.7250    43331.4425    26006.7400    37808.6900     3634.8700     9610.6550    11453.0925     4605.3875       20.8675        0.0000        3.3300
   11215.90333    40842.3150    43468.4495    26094.2760    37940.4060     3656.3380     9655.4970    11493.5595     4635.5925       20.7445        0.0000        3.3420
   11221.00433    40766.7875    43601.3737    26181.6900    38072.0150     3662.8450     9692.7425    11528.6488     4659.7312       20.6112        0.0000        3.3550
   11226.12521    41019.3775    43621.3807    26139.2260    38098.7310     3706.3130     9745.5845    11535.1158     4692.9362       21.4883        0.0000        3.3670
   11231.26598    41268.8500    43917.3050    26365.6400    37989.3400     3756.8200     9851.8300    11676.2050     4702.0750       21.3550        0.0000        3.3800
   11236.42667    41336.4400    44004.3120    26415.1760    38395.0560     3792.2880     9900.6720    11719.6720     4771.2800       22.2320        0.0000        3.3920
   11241.60726    41461.9125    44135.2363    26489.5900    38493.6650     3831.7950     9958.9175    11772.7612     4802.4187       22.0988        0.0000        3.4050
   11246.80146    41274.5025    44210.2432    26553.1260    38575.3810     3838.2630    10002.7595    11839.2283     4832.6237       22.9758        0.0000        3.4170
   11252.02191    41709.9750    44243.1675    26631.5400    38707.9900     3896.7700    10056.0050    11932.3175     4870.7625       23.8425        0.0000        3.4300
   11257.25598    41834.5650    44530.1745    26721.0760    38751.7060     3915.2380    10145.8470    12025.7845     4885.9675       23.7195        0.0000        3.4420
   11262.51001    41883.0375    44655.0987    26790.4900    38911.3150     3924.7450    10206.0925    12107.8737     4921.1062       23.5862        0.0000        3.4550
   11267.79031    42043.6275    44752.1058    26850.0260    38982.0310     3940.2130    10266.9345    12196.3407     4951.3112       23.4633        0.0000        3.4670
   11273.07794    42148.1000    44873.0300    26922.4400    39092.6400     3951.7200    10326.1800    12274.4300     4983.4500       23.3300        0.0000        3.4800
   11278.39187    42340.6900    44737.0370    26997.9760    38492.3560     3961.1880    10319.0220    12344.8970     4929.6550       23.2070        0.0000        3.4920
   11283.72580    42415.1625    44393.9613    27040.3900    39182.9650     3961.6950    10279.2675    12393.9862     5032.7937       24.0738        0.0000        3.5050
   11289.07339    42463.7525    45244.9682    27133.9260    39366.6810     3968.1630    10504.1095    12472.4533     5079.9987       22.9507        0.0000        3.5170
   11294.44731    42664.2250    45395.8925    27222.3400    39482.2900     3982.6700    10553.3550    12524.5425     5108.1375       24.8175        0.0000        3.5300
   11299.83492    42804.8150    45525.8995    27287.8760    39550.0060     4010.1380    10613.1970    12576.0095     5137.3425       23.6945        0.0000        3.5420
   11305.24256    42873.2875    45579.8238    27307.2900    39559.6150     4047.6450    10682.4425    12642.0988     5171.4812       24.5613        0.0000        3.5550
   11310.67024    42998.8775    45721.8308    27400.8260    39697.3310     4079.1130    10751.2845    12692.5657     5211.6862       25.4382        0.0000        3.5670
   11316.11162    43111.3500    45845.7550    27472.2400    39805.9400     4117.6200    10825.5300    12748.6550     5253.8250       26.3050        0.0000        3.5800
   11321.57939    43224.9400    45960.7620    27535.7760    39890.6560     4148.0880    10884.3720    12786.1220     5284.0300       26.1820        0.0000        3.5920
   11327.06089    43289.4125    46044.6862    27592.1900    39993.2650     4183.5950    10934.6175    12825.2113     5318.1687       26.0487        0.0000        3.6050
   11332.56246    43346.0025    46102.6932    27626.7260    40060.9810     4209.0630    10979.4595    12866.6783     5346.3737       26.9258        0.0000        3.6170
   11338.09045    43470.4750    46219.6175    27703.1400    40112.5900     4246.5700    11048.7050    12945.7675     5377.5125       26.7925        0.0000        3.6300
   11343.62586    43250.0650    46340.6245    27235.6760    40290.3060     4238.0380    11104.5470    12733.2345     5426.7175       27.6695        0.0000        3.6420
   11349.18770    42856.5375    46344.5488    27786.0900    40340.9150     4209.5450    11135.7925    13083.3237     5463.8562       28.5363        0.0000        3.6550
   11354.76966    43707.1275    46437.5557    27922.6260    40530.6310     4325.0130    11216.6345    13229.7908     5514.0612       28.4133        0.0000        3.6670
   11360.36539    43953.6000    46794.4800    27871.0400    40732.2400     4370.5200    11328.8800    13255.8800     5563.2000       28.2800        0.0000        3.6800
   11365.98125    44059.1900    46921.4870    28146.5760    40827.9560     4403.9880    11389.7220    13445.3470     5584.4050       29.1570        0.0000        3.6920
   11371.61725    44210.6625    47071.4112    28130.9900    40702.5650     4440.4950    11467.9675    13513.4362     5595.5437       29.0237        0.0000        3.7050
   11377.27340    44268.2525    47223.4183    28331.5260    41144.2810     4464.9630    11538.8095    13648.9032     5680.7487       29.9008        0.0000        3.7170
   11382.94971    44493.7250    47380.3425    28353.9400    41218.8900     4507.4700    11615.0550    13701.9925     5711.8875       30.7675        0.0000        3.7300
   11388.63983    44555.3150    47465.3495    28454.4760    41273.6060     4527.9380    11660.8970    13783.4595     5740.0925       30.6445        0.0000        3.7420
   11394.35648    44620.7875    47428.2738    28398.8900    41146.2150     4546.4450    11688.1425    13794.5487     5748.2312       30.5113        0.0000        3.7550
