XDAC V1.4 Datafile V1
"re4chan.002" created on 8/19/09 at 3:34:43 PM on X-23A2
Diffraction element= Si (311).  Ring energy= 2.80 GeV
E0= 10535.00
NUM_REGIONS= 4
SRB= -200 -20 30 60 15k
SRSS= 10 0.4 0.05k 0.05k
SPP= 1 1 1 0.25k
Settling time= 0.50


Offsets= 117.50 82.75 122.00 107.00 961.00 1596.50 1377.75 66.25 10.25 0.00 0.00
Gains= 8.00 8.00 8.00 8.00 7.00 7.00 7.00 7.00 9.00 0.00 1.00
4 channel ion chambers
1: Re powder  2: NH4ReO4  3: ReO3  4: ReO2
50/50 Ar/N2 in I0; Ar in It
--------------------------------------------------------------------------------
        Energy            I0           I02           I03           I04           It1           It2           It3           It4          Iref          temp       IntTime
   10334.99870    13418.5000    14239.2500     8588.0000    12634.0000     2823.0000     5098.5000     5500.2500     3634.7500       70.7500        0.0000        1.0000
   10345.00272    12887.5000    13941.2500     8559.0000    12646.0000     2731.0000     5022.5000     5513.2500     3666.7500       72.7500        0.0000        1.0000
   10354.99923    13397.5000    14223.2500     8583.0000    12628.0000     2856.0000     5149.5000     5560.2500     3685.7500       73.7500        0.0000        1.0000
   10365.00040    13417.5000    14242.2500     8593.0000    12629.0000     2879.0000     5184.5000     5600.2500     3714.7500       74.7500        0.0000        1.0000
   10375.00012    13383.5000    14200.2500     8566.0000    12584.0000     2890.0000     5200.5000     5612.2500     3718.7500       74.7500        0.0000        1.0000
   10384.99837    13339.5000    14158.2500     8543.0000    12554.0000     2902.0000     5215.5000     5629.2500     3738.7500       76.7500        0.0000        1.0000
   10395.00123    13305.5000    14112.2500     8509.0000    12495.0000     2908.0000     5221.5000     5633.2500     3739.7500       77.7500        0.0000        1.0000
   10405.00259    13334.5000    14144.2500     8527.0000    12515.0000     2928.0000     5252.5000     5668.2500     3765.7500       78.7500        0.0000        1.0000
   10415.00243    13284.5000    14079.2500     8480.0000    12435.0000     2939.0000     5263.5000     5673.2500     3765.7500       78.7500        0.0000        1.0000
   10425.00074    13291.5000    14085.2500     8483.0000    12430.0000     2956.0000     5290.5000     5701.2500     3784.7500       79.7500        0.0000        1.0000
   10434.99749    13254.5000    14042.2500     8452.0000    12374.0000     2961.0000     5297.5000     5704.2500     3786.7500       80.7500        0.0000        1.0000
   10444.99878    13296.5000    14085.2500     8478.0000    12413.0000     2975.0000     5318.5000     5729.2500     3810.7500       81.7500        0.0000        1.0000
   10454.99849    13232.5000    13969.2500     8421.0000    12353.0000     2988.0000     5314.5000     5727.2500     3819.7500       81.7500        0.0000        1.0000
   10465.00271    13283.5000    14075.2500     8470.0000    12393.0000     2997.0000     5354.5000     5767.2500     3840.7500       82.7500        0.0000        1.0000
   10474.99920    13252.5000    14042.2500     8449.0000    12360.0000     3009.0000     5376.5000     5783.2500     3850.7500       83.7500        0.0000        1.0000
   10485.00017    13166.5000    14025.2500     8442.0000    12353.0000     3001.0000     5396.5000     5811.2500     3868.7500       83.7500        0.0000        1.0000
   10494.99949    13221.5000    14011.2500     8430.0000    12316.0000     3017.0000     5406.5000     5821.2500     3861.7500       83.7500        0.0000        1.0000
   10504.99713    13200.5000    13984.2500     8413.0000    12294.0000     2989.0000     5374.5000     5791.2500     3831.7500       81.7500        0.0000        1.0000
   10514.99923    13180.5000    13959.2500     8396.0000    12261.0000     2909.0000     5299.5000     5713.2500     3734.7500       76.7500        0.0000        1.0000
   10515.39818    13182.5000    13970.2500     8406.0000    12285.0000     2904.0000     5301.5000     5720.2500     3738.7500       76.7500        0.0000        1.0000
   10515.79714    13182.5000    13967.2500     8402.0000    12276.0000     2898.0000     5294.5000     5712.2500     3728.7500       76.7500        0.0000        1.0000
   10516.20224    13155.5000    13936.2500     8385.0000    12256.0000     2887.0000     5277.5000     5696.2500     3718.7500       74.7500        0.0000        1.0000
   10516.60121    13180.5000    13965.2500     8403.0000    12279.0000     2886.0000     5281.5000     5698.2500     3717.7500       75.7500        0.0000        1.0000
   10517.00018    13179.5000    13966.2500     8401.0000    12274.0000     2876.0000     5268.5000     5684.2500     3703.7500       74.7500        0.0000        1.0000
   10517.39917    13194.5000    13979.2500     8410.0000    12286.0000     2876.0000     5272.5000     5687.2500     3700.7500       73.7500        0.0000        1.0000
   10517.79816    13190.5000    13975.2500     8410.0000    12286.0000     2862.0000     5262.5000     5678.2500     3692.7500       73.7500        0.0000        1.0000
   10518.19716    13179.5000    13963.2500     8400.0000    12272.0000     2843.0000     5229.5000     5639.2500     3660.7500       72.7500        0.0000        1.0000
   10518.60230    13175.5000    13958.2500     8397.0000    12271.0000     2834.0000     5224.5000     5633.2500     3655.7500       72.7500        0.0000        1.0000
   10519.00131    13148.5000    13933.2500     8381.0000    12256.0000     2831.0000     5225.5000     5639.2500     3657.7500       72.7500        0.0000        1.0000
   10519.40033    13172.5000    13956.2500     8397.0000    12272.0000     2826.0000     5220.5000     5633.2500     3646.7500       71.7500        0.0000        1.0000
   10519.79936    13180.5000    13965.2500     8402.0000    12276.0000     2819.0000     5220.5000     5635.2500     3643.7500       70.7500        0.0000        1.0000
   10520.19839    13176.5000    13961.2500     8400.0000    12273.0000     2800.0000     5199.5000     5614.2500     3625.7500       70.7500        0.0000        1.0000
   10520.59743    13188.5000    13976.2500     8407.0000    12282.0000     2793.0000     5192.5000     5610.2500     3616.7500       69.7500        0.0000        1.0000
   10521.00262    13181.5000    13969.2500     8406.0000    12280.0000     2776.0000     5170.5000     5580.2500     3588.7500       69.7500        0.0000        1.0000
   10521.40168    13188.5000    13978.2500     8409.0000    12285.0000     2766.0000     5161.5000     5579.2500     3589.7500       68.7500        0.0000        1.0000
   10521.80074    13184.5000    13972.2500     8405.0000    12280.0000     2770.0000     5178.5000     5591.2500     3586.7500       67.7500        0.0000        1.0000
   10522.19981    13176.5000    13961.2500     8400.0000    12274.0000     2755.0000     5166.5000     5578.2500     3571.7500       67.7500        0.0000        1.0000
   10522.59888    13164.5000    13949.2500     8394.0000    12270.0000     2739.0000     5151.5000     5563.2500     3558.7500       66.7500        0.0000        1.0000
   10522.99797    13185.5000    13971.2500     8403.0000    12273.0000     2728.0000     5140.5000     5550.2500     3539.7500       65.7500        0.0000        1.0000
   10523.39706    13174.5000    13963.2500     8401.0000    12275.0000     2709.0000     5126.5000     5537.2500     3524.7500       64.7500        0.0000        1.0000
   10523.80229    13166.5000    13953.2500     8396.0000    12267.0000     2693.0000     5111.5000     5522.2500     3507.7500       62.7500        0.0000        1.0000
   10524.20140    13179.5000    13966.2500     8403.0000    12276.0000     2679.0000     5102.5000     5514.2500     3492.7500       62.7500        0.0000        1.0000
   10524.60051    13181.5000    13970.2500     8407.0000    12282.0000     2663.0000     5092.5000     5504.2500     3475.7500       60.7500        0.0000        1.0000
   10524.99963    13176.5000    13962.2500     8400.0000    12274.0000     2636.0000     5066.5000     5475.2500     3446.7500       59.7500        0.0000        1.0000
   10525.39875    13165.5000    13953.2500     8396.0000    12268.0000     2609.0000     5039.5000     5449.2500     3418.7500       58.7500        0.0000        1.0000
   10525.79789    13167.5000    13955.2500     8396.0000    12268.0000     2584.0000     5016.5000     5422.2500     3390.7500       57.7500        0.0000        1.0000
   10526.19703    13172.5000    13961.2500     8402.0000    12273.0000     2559.0000     5000.5000     5406.2500     3366.7500       56.7500        0.0000        1.0000
   10526.60231    13170.5000    13959.2500     8400.0000    12271.0000     2523.0000     4963.5000     5368.2500     3328.7500       54.7500        0.0000        1.0000
   10527.00147    13173.5000    13960.2500     8399.0000    12270.0000     2501.0000     4952.5000     5354.2500     3305.7500       53.7500        0.0000        1.0000
   10527.40063    13165.5000    13953.2500     8396.0000    12266.0000     2469.0000     4923.5000     5324.2500     3273.7500       51.7500        0.0000        1.0000
   10527.79980    13166.5000    13956.2500     8398.0000    12269.0000     2426.0000     4883.5000     5281.2500     3231.7500       49.7500        0.0000        1.0000
   10528.19897    13165.5000    13951.2500     8394.0000    12265.0000     2384.0000     4842.5000     5235.2500     3183.7500       48.7500        0.0000        1.0000
   10528.59815    13150.5000    13936.2500     8387.0000    12252.0000     2338.0000     4796.5000     5189.2500     3138.7500       46.7500        0.0000        1.0000
   10528.99734    13154.5000    13942.2500     8390.0000    12259.0000     2306.0000     4779.5000     5168.2500     3100.7500       44.7500        0.0000        1.0000
   10529.40268    13150.5000    13939.2500     8387.0000    12258.0000     2259.0000     4748.5000     5133.2500     3059.7500       42.7500        0.0000        1.0000
   10529.80188    13147.5000    13933.2500     8384.0000    12248.0000     2216.0000     4720.5000     5103.2500     3016.7500       40.7500        0.0000        1.0000
   10530.20109    13142.5000    13926.2500     8380.0000    12245.0000     2160.0000     4679.5000     5059.2500     2962.7500       38.7500        0.0000        1.0000
   10530.60031    13147.5000    13933.2500     8383.0000    12243.0000     2097.0000     4631.5000     5007.2500     2898.7500       35.7500        0.0000        1.0000
   10530.99953    13143.5000    13930.2500     8382.0000    12246.0000     2037.0000     4584.5000     4955.2500     2840.7500       33.7500        0.0000        1.0000
   10531.39877    13140.5000    13926.2500     8381.0000    12245.0000     1946.0000     4514.5000     4879.2500     2749.7500       30.7500        0.0000        1.0000
   10531.79800    13145.5000    13933.2500     8383.0000    12249.0000     1877.0000     4467.5000     4826.2500     2678.7500       28.7500        0.0000        1.0000
   10532.19725    13140.5000    13927.2500     8378.0000    12238.0000     1802.0000     4407.5000     4757.2500     2606.7500       26.7500        0.0000        1.0000
   10532.60264    13146.5000    13934.2500     8386.0000    12249.0000     1729.0000     4356.5000     4698.2500     2533.7500       23.7500        0.0000        1.0000
   10533.00190    13126.5000    13913.2500     8373.0000    12234.0000     1630.0000     4275.5000     4608.2500     2434.7500       20.7500        0.0000        1.0000
   10533.40117    13137.5000    13924.2500     8378.0000    12241.0000     1527.0000     4197.5000     4518.2500     2329.7500       17.7500        0.0000        1.0000
   10533.80044    13141.5000    13929.2500     8381.0000    12241.0000     1407.0000     4105.5000     4411.2500     2206.7500       14.7500        0.0000        1.0000
   10534.19973    13139.5000    13925.2500     8377.0000    12239.0000     1270.0000     3994.5000     4282.2500     2064.7500       11.7500        0.0000        1.0000
   10534.59901    13123.5000    13911.2500     8371.0000    12232.0000     1120.0000     3865.5000     4132.2500     1901.7500        8.7500        0.0000        1.0000
   10534.99831    13125.5000    13913.2500     8370.0000    12229.0000     1007.0000     3759.5000     4007.2500     1769.7500        6.7500        0.0000        1.0000
   10535.39761    13138.5000    13927.2500     8379.0000    12240.0000      903.0000     3655.5000     3883.2500     1641.7500        6.7500        0.0000        1.0000
   10535.80306    13139.5000    13926.2500     8380.0000    12240.0000      785.0000     3518.5000     3723.2500     1485.7500        3.7500        0.0000        1.0000
   10536.20238    13117.5000    13905.2500     8368.0000    12226.0000      672.0000     3373.5000     3550.2500     1324.7500        3.7500        0.0000        1.0000
   10536.60170    13131.5000    13920.2500     8375.0000    12235.0000      576.0000     3233.5000     3382.2500     1174.7500        1.7500        0.0000        1.0000
   10537.00103    13113.5000    13902.2500     8367.0000    12223.0000      466.0000     3023.5000     3133.2500      974.7500        0.7500        0.0000        1.0000
   10537.40037    13110.5000    13898.2500     8362.0000    12217.0000      375.0000     2797.5000     2864.2500      780.7500        0.7500        0.0000        1.0000
   10537.79971    13110.5000    13897.2500     8366.0000    12224.0000      325.0000     2634.5000     2674.2500      655.7500        0.7500        0.0000        1.0000
   10538.19906    13130.5000    13916.2500     8372.0000    12228.0000      290.0000     2477.5000     2491.2500      552.7500       -0.2500        0.0000        1.0000
   10538.59842    13124.5000    13909.2500     8367.0000    12220.0000      247.0000     2246.5000     2229.2500      425.7500       -0.2500        0.0000        1.0000
   10538.99779    13123.5000    13908.2500     8366.0000    12218.0000      214.0000     1962.5000     1924.2500      306.7500       -0.2500        0.0000        1.0000
   10539.39716    13118.5000    13904.2500     8365.0000    12215.0000      191.0000     1688.5000     1646.2500      220.7500       -0.2500        0.0000        1.0000
   10539.80268    13122.5000    13907.2500     8367.0000    12217.0000      178.0000     1444.5000     1419.2500      165.7500        0.7500        0.0000        1.0000
   10540.20207    13119.5000    13902.2500     8361.0000    12211.0000      171.0000     1209.5000     1218.2500      125.7500       -0.2500        0.0000        1.0000
   10540.60146    13116.5000    13900.2500     8364.0000    12210.0000      168.0000     1011.5000     1064.2500       98.7500       -0.2500        0.0000        1.0000
   10541.00086    13117.5000    13902.2500     8364.0000    12204.0000      170.0000      855.5000      951.2500       81.7500       -0.2500        0.0000        1.0000
   10541.40027    13107.5000    13895.2500     8359.0000    12191.0000      177.0000      694.5000      845.2500       66.7500       -0.2500        0.0000        1.0000
   10541.79968    13113.5000    13889.2500     8353.0000    12178.0000      192.0000      551.5000      760.2500       54.7500        0.7500        0.0000        1.0000
   10542.19910    13111.5000    13894.2500     8356.0000    12190.0000      214.0000      440.5000      700.2500       48.7500       -0.2500        0.0000        1.0000
   10542.59853    13111.5000    13899.2500     8359.0000    12202.0000      231.0000      392.5000      676.2500       46.7500       -0.2500        0.0000        1.0000
   10542.99797    13108.5000    13889.2500     8350.0000    12201.0000      253.0000      345.5000      653.2500       46.7500       -0.2500        0.0000        1.0000
   10543.39741    13110.5000    13893.2500     8350.0000    12212.0000      283.0000      312.5000      636.2500       49.7500       -0.2500        0.0000        1.0000
   10543.80301    13106.5000    13891.2500     8343.0000    12213.0000      312.0000      296.5000      627.2500       57.7500       -0.2500        0.0000        1.0000
   10544.20246    13107.5000    13890.2500     8341.0000    12212.0000      339.0000      299.5000      628.2500       66.7500       -0.2500        0.0000        1.0000
   10544.60193    13103.5000    13889.2500     8342.0000    12211.0000      361.0000      314.5000      634.2500       77.7500       -0.2500        0.0000        1.0000
   10545.00140    13098.5000    13880.2500     8342.0000    12204.0000      386.0000      347.5000      650.2500       94.7500       -0.2500        0.0000        1.0000
   10545.40087    13098.5000    13879.2500     8349.0000    12204.0000      410.0000      400.5000      675.2500      114.7500       -0.2500        0.0000        1.0000
   10545.80036    13101.5000    13873.2500     8353.0000    12202.0000      431.0000      468.5000      707.2500      141.7500       -0.2500        0.0000        1.0000
   10546.19985    13102.5000    13872.2500     8358.0000    12209.0000      457.0000      577.5000      759.2500      181.7500       -0.2500        0.0000        1.0000
   10546.59935    13098.5000    13859.2500     8354.0000    12204.0000      480.0000      714.5000      826.2500      230.7500        0.7500        0.0000        1.0000
   10546.99886    13080.5000    13843.2500     8346.0000    12197.0000      496.0000      846.5000      890.2500      278.7500       -0.2500        0.0000        1.0000
   10547.39837    13090.5000    13857.2500     8348.0000    12197.0000      511.0000      996.5000      970.2500      337.7500        0.7500        0.0000        1.0000
   10547.79789    13084.5000    13859.2500     8347.0000    12194.0000      520.0000     1137.5000     1052.2500      395.7500        0.7500        0.0000        1.0000
   10548.19741    13092.5000    13880.2500     8353.0000    12203.0000      531.0000     1280.5000     1147.2500      455.7500        0.7500        0.0000        1.0000
   10548.59695    13071.5000    13862.2500     8338.0000    12181.0000      539.0000     1402.5000     1242.2500      512.7500        0.7500        0.0000        1.0000
   10549.00264    13056.5000    13867.2500     8345.0000    12200.0000      547.0000     1520.5000     1358.2500      576.7500        0.7500        0.0000        1.0000
   10549.40218    13071.5000    13878.2500     8350.0000    12199.0000      557.0000     1631.5000     1501.2500      644.7500        0.7500        0.0000        1.0000
   10549.80174    13076.5000    13876.2500     8349.0000    12196.0000      564.0000     1694.5000     1621.2500      693.7500        0.7500        0.0000        1.0000
   10550.20130    13065.5000    13859.2500     8340.0000    12188.0000      569.0000     1732.5000     1730.2500      732.7500        1.7500        0.0000        1.0000
   10550.60087    13093.5000    13880.2500     8350.0000    12200.0000      574.0000     1756.5000     1824.2500      760.7500        1.7500        0.0000        1.0000
   10551.00045    13089.5000    13870.2500     8346.0000    12195.0000      578.0000     1770.5000     1932.2500      790.7500        0.7500        0.0000        1.0000
   10551.40003    13085.5000    13865.2500     8343.0000    12189.0000      578.0000     1768.5000     2038.2500      814.7500        0.7500        0.0000        1.0000
   10551.79962    13089.5000    13870.2500     8345.0000    12190.0000      580.0000     1764.5000     2131.2500      833.7500        1.7500        0.0000        1.0000
   10552.19922    13086.5000    13869.2500     8344.0000    12195.0000      581.0000     1749.5000     2243.2500      850.7500        1.7500        0.0000        1.0000
   10552.59882    13096.5000    13878.2500     8352.0000    12201.0000      582.0000     1731.5000     2342.2500      865.7500        0.7500        0.0000        1.0000
   10552.99843    13087.5000    13870.2500     8344.0000    12192.0000      583.0000     1712.5000     2410.2500      874.7500        1.7500        0.0000        1.0000
   10553.39805    13087.5000    13867.2500     8343.0000    12188.0000      583.0000     1690.5000     2472.2500      879.7500        0.7500        0.0000        1.0000
   10553.79767    13090.5000    13867.2500     8341.0000    12186.0000      584.0000     1667.5000     2532.2500      885.7500        1.7500        0.0000        1.0000
   10554.19731    13089.5000    13871.2500     8345.0000    12190.0000      588.0000     1645.5000     2583.2500      892.7500        0.7500        0.0000        1.0000
   10554.59694    13082.5000    13867.2500     8345.0000    12189.0000      591.0000     1624.5000     2623.2500      897.7500        1.7500        0.0000        1.0000
   10555.00274    13087.5000    13866.2500     8342.0000    12187.0000      598.0000     1619.5000     2658.2500      904.7500        1.7500        0.0000        1.0000
   10555.40239    13079.5000    13860.2500     8339.0000    12185.0000      604.0000     1612.5000     2682.2500      909.7500        0.7500        0.0000        1.0000
   10555.80205    13075.5000    13851.2500     8334.0000    12173.0000      611.0000     1616.5000     2698.2500      915.7500        1.7500        0.0000        1.0000
   10556.20172    13070.5000    13852.2500     8335.0000    12182.0000      620.0000     1627.5000     2716.2500      922.7500        1.7500        0.0000        1.0000
   10556.60139    13081.5000    13862.2500     8339.0000    12182.0000      630.0000     1647.5000     2730.2500      932.7500        1.7500        0.0000        1.0000
   10557.00107    13075.5000    13857.2500     8338.0000    12183.0000      644.0000     1677.5000     2741.2500      942.7500        2.7500        0.0000        1.0000
   10557.40076    13073.5000    13853.2500     8336.0000    12177.0000      658.0000     1717.5000     2754.2500      954.7500        1.7500        0.0000        1.0000
   10557.80046    13063.5000    13839.2500     8327.0000    12166.0000      669.0000     1748.5000     2753.2500      962.7500        1.7500        0.0000        1.0000
   10558.20016    13079.5000    13859.2500     8337.0000    12179.0000      682.0000     1786.5000     2765.2500      972.7500        2.7500        0.0000        1.0000
   10558.59987    13075.5000    13857.2500     8337.0000    12180.0000      693.0000     1825.5000     2775.2500      985.7500        2.7500        0.0000        1.0000
   10558.99958    13071.5000    13849.2500     8332.0000    12173.0000      704.0000     1864.5000     2777.2500      996.7500        2.7500        0.0000        1.0000
   10559.39931    13073.5000    13853.2500     8334.0000    12176.0000      717.0000     1906.5000     2779.2500     1010.7500        2.7500        0.0000        1.0000
   10559.79904    13072.5000    13852.2500     8336.0000    12179.0000      727.0000     1946.5000     2775.2500     1021.7500        2.7500        0.0000        1.0000
   10560.19877    13067.5000    13846.2500     8331.0000    12170.0000      733.0000     1973.5000     2769.2500     1027.7500        2.7500        0.0000        1.0000
   10560.59852    13055.5000    13835.2500     8325.0000    12164.0000      738.0000     1993.5000     2761.2500     1036.7500        2.7500        0.0000        1.0000
   10560.99827    13059.5000    13839.2500     8326.0000    12166.0000      742.0000     2019.5000     2756.2500     1042.7500        1.7500        0.0000        1.0000
   10561.39803    13065.5000    13846.2500     8332.0000    12173.0000      746.0000     2045.5000     2750.2500     1048.7500        2.7500        0.0000        1.0000
   10561.79779    13065.5000    13846.2500     8330.0000    12168.0000      748.0000     2069.5000     2740.2500     1053.7500        2.7500        0.0000        1.0000
   10562.19756    13054.5000    13833.2500     8322.0000    12161.0000      750.0000     2090.5000     2740.2500     1059.7500        2.7500        0.0000        1.0000
   10562.59734    13060.5000    13841.2500     8327.0000    12165.0000      750.0000     2108.5000     2739.2500     1060.7500        2.7500        0.0000        1.0000
   10562.99713    13054.5000    13830.2500     8323.0000    12157.0000      749.0000     2126.5000     2739.2500     1063.7500        2.7500        0.0000        1.0000
   10563.40307    13049.5000    13830.2500     8318.0000    12153.0000      748.0000     2141.5000     2739.2500     1062.7500        2.7500        0.0000        1.0000
   10563.80287    13040.5000    13820.2500     8315.0000    12152.0000      745.0000     2155.5000     2741.2500     1061.7500        2.7500        0.0000        1.0000
   10564.20268    13041.5000    13819.2500     8315.0000    12156.0000      743.0000     2171.5000     2751.2500     1060.7500        2.7500        0.0000        1.0000
   10564.60249    13049.5000    13826.2500     8317.0000    12152.0000      740.0000     2188.5000     2762.2500     1058.7500        2.7500        0.0000        1.0000
   10566.07879    13040.5000    13816.2500     8312.0000    12146.0000      733.0000     2227.5000     2815.2500     1047.7500        2.7500        0.0000        1.0000
   10567.17377    13030.5000    13808.2500     8305.0000    12138.0000      731.0000     2241.5000     2858.2500     1039.7500        2.7500        0.0000        1.0000
   10568.29342    13036.5000    13814.2500     8308.0000    12136.0000      735.0000     2253.5000     2904.2500     1034.7500        1.7500        0.0000        1.0000
   10569.43157    13035.5000    13812.2500     8309.0000    12139.0000      740.0000     2257.5000     2938.2500     1032.7500        2.7500        0.0000        1.0000
   10570.58208    13038.5000    13820.2500     8313.0000    12140.0000      748.0000     2263.5000     2965.2500     1029.7500        2.7500        0.0000        1.0000
   10571.75727    13031.5000    13809.2500     8306.0000    12135.0000      752.0000     2262.5000     2961.2500     1022.7500        2.7500        0.0000        1.0000
   10572.95098    13035.5000    13809.2500     8303.0000    12125.0000      766.0000     2292.5000     2970.2500     1025.7500        2.7500        0.0000        1.0000
   10574.16320    13028.5000    13804.2500     8301.0000    12127.0000      772.0000     2315.5000     2932.2500     1023.7500        2.7500        0.0000        1.0000
   10575.39396    13022.5000    13804.2500     8305.0000    12129.0000      775.0000     2323.5000     2854.2500     1013.7500        2.7500        0.0000        1.0000
   10576.64324    13014.5000    13792.2500     8297.0000    12122.0000      789.0000     2361.5000     2807.2500     1007.7500        2.7500        0.0000        1.0000
   10577.91106    13019.5000    13796.2500     8294.0000    12112.0000      802.0000     2390.5000     2776.2500     1002.7500        2.7500        0.0000        1.0000
   10579.20356    13001.5000    13777.2500     8285.0000    12099.0000      815.0000     2413.5000     2774.2500      992.7500        2.7500        0.0000        1.0000
   10580.50845    13024.5000    13796.2500     8295.0000    12109.0000      824.0000     2430.5000     2796.2500      978.7500        2.7500        0.0000        1.0000
   10581.83188    13018.5000    13784.2500     8283.0000    12088.0000      825.0000     2431.5000     2816.2500      963.7500        2.7500        0.0000        1.0000
   10583.18001    13029.5000    13789.2500     8279.0000    12071.0000      823.0000     2422.5000     2819.2500      938.7500        2.7500        0.0000        1.0000
   10584.54668    13027.5000    13781.2500     8273.0000    12051.0000      817.0000     2406.5000     2811.2500      912.7500        2.7500        0.0000        1.0000
   10585.92575    13011.5000    13767.2500     8266.0000    12034.0000      810.0000     2388.5000     2796.2500      887.7500        2.7500        0.0000        1.0000
   10587.32954    13014.5000    13768.2500     8262.0000    11997.0000      801.0000     2360.5000     2758.2500      859.7500        2.7500        0.0000        1.0000
   10588.75188    13014.5000    13769.2500     8259.0000    11815.0000      798.0000     2340.5000     2725.2500      824.7500        1.7500        0.0000        1.0000
   10590.19278    12987.5000    13738.2500     8238.0000    11130.0000      791.0000     2313.5000     2679.2500      763.7500        1.7500        0.0000        1.0000
   10591.65225    12991.5000    13745.2500     8229.0000    11277.0000      789.0000     2292.5000     2638.2500      764.7500        2.7500        0.0000        1.0000
   10593.13028    12972.5000    13720.2500     8143.0000    12075.0000      784.0000     2265.5000     2577.2500      808.7500        2.7500        0.0000        1.0000
   10594.62689    12964.5000    13703.2500     7712.0000    12157.0000      777.0000     2235.5000     2442.2500      817.7500        1.7500        0.0000        1.0000
   10596.52397    13007.9125    13710.8363     7830.3900    12210.4650      773.1950     2213.5175     2312.3612      838.4188        2.6988        0.0000        1.0050
   10598.06391    13131.5025    13670.8432     8448.9260    12334.1810      779.6630     2196.3595     2503.8283      867.6237        2.5758        0.0000        1.0170
   10599.62245    13283.9750    12993.7675     8587.3400    12500.7900      785.1700     2085.6050     2500.9175      902.7625        2.4425        0.0000        1.0300
   10601.19956    13374.5650    13354.7745     8666.8760    12647.5060      789.6380     2060.4470     2483.3845      932.9675        2.3195        0.0000        1.0420
   10602.79527    13363.0375    14551.6987     8767.2900    12772.1150      789.1450     2260.6925     2493.4738      962.1063        2.1863        0.0000        1.0550
   10604.41574    12721.6275    14814.7057     8876.8260    12949.8310      749.6130     2296.5345     2535.9407      997.3112        2.0633        0.0000        1.0670
   10606.04865    13022.1000    14950.6300     8974.2400    13096.4400      782.1200     2300.7800     2597.0300     1025.4500        2.9300        0.0000        1.0800
   10607.70632    14291.6900    15108.6370     9074.7760    13249.1560      853.5880     2311.6220     2678.4970     1053.6550        2.8070        0.0000        1.0920
   10609.37643    14490.1625    15279.5613     9183.1900    13407.7650      867.0950     2327.8675     2772.5863     1080.7938        2.6738        0.0000        1.1050
   10611.07132    14593.7525    15415.5683     9266.7260    13531.4810      876.5630     2336.7095     2863.0532     1103.9987        2.5508        0.0000        1.1170
   10612.78482    14721.2250    15574.4925     9369.1400    13687.0900      889.0700     2356.9550     2958.1425     1127.1375        2.4175        0.0000        1.1300
   10614.51695    14830.8150    15730.4995     9466.6760    13829.8060      899.5380     2374.7970     3038.6095     1146.3425        3.2945        0.0000        1.1420
   10616.26769    15013.2875    15869.4237     9547.0900    13948.4150      915.0450     2393.0425     3102.6988     1157.4813        3.1612        0.0000        1.1550
   10618.03707    15157.8775    16062.4307     9669.6260    14128.1310      932.5130     2433.8845     3181.1658     1180.6862        3.0382        0.0000        1.1670
   10619.82508    15325.3500    16240.3550     9773.0400    14276.7400      947.0200     2456.1300     3213.2550     1192.8250        2.9050        0.0000        1.1800
   10621.63172    15491.9400    16415.3620     9873.5760    14417.4560      964.4880     2481.9720     3230.7220     1198.0300        3.7820        0.0000        1.1920
   10623.45700    15607.4125    16560.2863     9960.9900    14551.0650      986.9950     2531.2175     3270.8112     1217.1688        3.6487        0.0000        1.2050
   10625.30093    15780.0025    16699.2932    10046.5260    14682.7810     1008.4630     2571.0595     3298.2782     1227.3737        3.5257        0.0000        1.2170
   10627.16351    15925.4750    16882.2175    10152.9400    14813.3900     1021.9700     2613.3050     3340.3675     1231.5125        3.3925        0.0000        1.2300
   10629.05091    16090.0650    17039.2245    10257.4760    14973.1060     1032.4380     2652.1470     3387.8345     1240.7175        3.2695        0.0000        1.2420
   10630.95080    16259.5375    17226.1488    10351.8900    15122.7150     1039.9450     2701.3925     3449.9237     1248.8563        4.1363        0.0000        1.2550
   10632.87552    16407.1275    17388.1558    10457.4260    15250.4310     1039.4130     2734.2345     3502.3908     1250.0612        4.0133        0.0000        1.2670
   10634.81274    16567.6000    17559.0800    10558.8400    15414.0400     1041.9200     2771.4800     3553.4800     1258.2000        3.8800        0.0000        1.2800
   10636.77480    16731.1900    17731.0870    10662.3760    15559.7560     1047.3880     2823.3220     3620.9470     1277.4050        3.7570        0.0000        1.2920
   10638.74937    16886.6625    17892.0112    10760.7900    15707.3650     1048.8950     2857.5675     3652.0363     1285.5438        4.6238        0.0000        1.3050
   10640.74879    17014.2525    18032.0183    10843.3260    15826.0810     1053.3630     2897.4095     3678.5032     1297.7487        3.5008        0.0000        1.3170
   10642.76689    17187.7250    18207.9425    10946.7400    15964.6900     1064.8700     2954.6550     3717.5925     1315.8875        3.3675        0.0000        1.3300
   10644.80369    17354.3150    18391.9495    11055.2760    16129.4060     1077.3380     3010.4970     3742.0595     1334.0925        4.2445        0.0000        1.3420
   10646.85918    17498.7875    18541.8737    11148.6900    16264.0150     1076.8450     3030.7425     3727.1488     1333.2313        4.1113        0.0000        1.3550
   10648.93337    17640.3775    18694.8808    11240.2260    16398.7310     1090.3130     3089.5845     3761.6157     1348.4362        3.9883        0.0000        1.3670
   10651.02627    17821.8500    18884.8050    11349.6400    16552.3400     1101.8200     3141.8300     3796.7050     1354.5750        3.8550        0.0000        1.3800
   10653.13788    17977.4400    19043.8120    11443.1760    16682.0560     1109.2880     3184.6720     3828.1720     1352.7800        3.7320        0.0000        1.3920
   10655.26820    18125.9125    19202.7363    11539.5900    16823.6650     1111.7950     3223.9175     3863.2613     1349.9188        3.5987        0.0000        1.4050
   10657.41725    18281.5025    19359.7432    11630.1260    16946.3810     1115.2630     3263.7595     3900.7283     1347.1237        4.4757        0.0000        1.4170
   10659.58502    18437.9750    19527.6675    11729.5400    17085.9900     1118.7700     3300.0050     3935.8175     1344.2625        4.3425        0.0000        1.4300
   10661.77769    18597.5650    19693.6745    11825.0760    17213.7060     1122.2380     3329.8470     3964.2845     1345.4675        3.2195        0.0000        1.4420
   10663.98293    18743.0375    19847.5988    11916.4900    17311.3150     1129.7450     3359.0925     3988.3737     1345.6063        3.0862        0.0000        1.4550
   10666.20690    18894.6275    20010.6057    12013.0260    17097.0310     1139.2130     3388.9345     4008.8407     1328.8112        2.9632        0.0000        1.4670
   10668.45580    19045.1000    20170.5300    12102.4400    17094.6400     1152.7200     3417.1800     4016.9300     1337.9500        3.8300        0.0000        1.4800
   10670.71727    19186.6900    20318.5370    12162.9760    17877.3560     1165.1880     3433.0220     4006.3970     1393.1550        3.7070        0.0000        1.4920
   10673.00368    19339.1625    20468.4613    12003.3900    18031.9650     1192.6950     3461.2675     3970.4862     1416.2938        4.5738        0.0000        1.5050
   10675.30267    19467.7525    20591.4683    11960.9260    18130.6810     1217.1630     3478.1095     3878.9533     1432.4987        3.4508        0.0000        1.5170
   10677.62661    19604.2250    20671.3925    12505.3400    18207.2900     1244.6700     3481.3550     4036.0425     1445.6375        4.3175        0.0000        1.5300
   10679.96932    19747.8150    20404.3995    12637.8760    18240.0060     1277.1380     3450.1970     4110.5095     1462.8425        4.1945        0.0000        1.5420
   10682.32462    19881.2875    20401.3237    12710.2900    17716.6150     1300.6450     3397.4425     4130.5988     1424.9813        5.0613        0.0000        1.5550
   10684.70489    19956.8775    21406.3308    12758.8260    17235.3310     1315.1130     3578.2845     4158.0657     1414.1862        3.9383        0.0000        1.5670
   10687.10395    19593.3500    21546.2550    12542.2400    19281.9400     1286.6200     3593.5300     4132.1550     1581.3250        4.8050        0.0000        1.5800
   10689.52181    19588.9400    21616.2620    11871.7760    19290.6560     1295.0880     3596.3720     3817.6220     1595.5300        4.6820        0.0000        1.5920
   10691.95847    20666.4125    21304.1862    13244.1900    19361.2650     1350.5950     3543.6175     4316.7113     1608.6688        4.5488        0.0000        1.6050
   10694.40774    20766.0025    19979.1933    13391.7260    19391.9810     1352.0630     3305.4595     4378.1782     1618.8737        4.4258        0.0000        1.6170
   10696.88202    20693.4750    22335.1175    13458.1400    19626.5900     1343.5700     3683.7050     4395.2675     1650.0125        5.2925        0.0000        1.6300
   10699.37511    19124.0650    22545.1245    13530.6760    19750.3060     1234.0380     3716.5470     4409.7345     1665.2175        5.1695        0.0000        1.6420
   10701.88702    21337.5375    22672.0488    13632.0900    19908.9150     1385.5450     3733.7925     4457.8237     1691.3563        5.0362        0.0000        1.6550
   10704.41776    21512.1275    22774.0557    13701.6260    20016.6310     1390.0130     3745.6345     4498.2908     1702.5612        4.9132        0.0000        1.6670
   10706.97352    21673.6000    22970.9800    13825.0400    20193.2400     1395.5200     3776.8800     4567.3800     1722.7000        5.7800        0.0000        1.6800
   10709.54194    21810.1900    23124.9870    13916.5760    20319.9560     1400.9880     3802.7220     4627.8470     1736.9050        4.6570        0.0000        1.6920
   10712.12920    21958.6625    23265.9113    13987.9900    20407.5650     1408.4950     3823.9675     4682.9362     1745.0438        4.5237        0.0000        1.7050
   10714.73532    22000.2525    23435.9182    14102.5260    20579.2810     1409.9630     3853.8095     4759.4032     1759.2487        4.4007        0.0000        1.7170
   10717.36029    22257.7250    23557.8425    14122.9400    20726.8900     1421.4700     3867.0550     4791.4925     1766.3875        5.2675        0.0000        1.7300
   10720.01032    22409.3150    23758.8495    14283.4760    20795.6060     1431.9380     3908.8970     4898.9595     1770.5925        5.1445        0.0000        1.7420
   10722.67303    22526.7875    23898.7738    14377.8900    20998.2150     1437.4450     3945.1425     4971.0487     1788.7313        5.0113        0.0000        1.7550
   10725.35461    22693.3775    24074.7808    14480.4260    21140.9310     1442.9130     3987.9845     5028.5158     1804.9362        5.8882        0.0000        1.7670
   10728.06127    22879.8500    24271.7050    14597.8400    21302.5400     1445.4200     4028.2300     5068.6050     1818.0750        4.7550        0.0000        1.7800
   10730.78062    22992.4400    24396.7120    14677.3760    21426.2560     1445.8880     4061.0720     5095.0720     1833.2800        4.6320        0.0000        1.7920
   10733.51887    23170.9125    24587.6362    14791.7900    21590.8650     1456.3950     4104.3175     5127.1613     1851.4188        5.4988        0.0000        1.8050
   10736.28221    23328.5025    24757.6433    14891.3260    21727.5810     1471.8630     4145.1595     5148.6282     1865.6237        5.3758        0.0000        1.8170
   10739.05826    23494.9750    24926.5675    14993.7400    21872.1900     1494.3700     4188.4050     5172.7175     1878.7625        5.2425        0.0000        1.8300
   10741.85943    23601.5650    25037.5745    15062.2760    21973.9060     1520.8380     4216.2470     5180.1845     1882.9675        5.1195        0.0000        1.8420
   10744.67331    23754.0375    25199.4987    15161.6900    22116.5150     1554.3450     4263.4925     5226.2738     1899.1063        5.9863        0.0000        1.8550
   10747.51233    23888.6275    25348.5058    15252.2260    22253.2310     1584.8130     4307.3345     5264.7407     1908.3112        5.8633        0.0000        1.8670
   10750.36407    24065.1000    25533.4300    15360.6400    22406.8400     1610.3200     4355.5800     5318.8300     1919.4500        5.7300        0.0000        1.8800
   10753.24095    24178.6900    25654.4370    15434.1760    22518.5560     1623.7880     4387.4220     5351.2970     1924.6550        6.6070        0.0000        1.8920
   10756.13058    24353.1625    25835.3613    15540.5900    22670.1650     1639.2950     4437.6675     5402.3862     1938.7938        5.4737        0.0000        1.9050
   10759.04536    24479.7525    25988.3682    15639.1260    22823.8810     1649.7630     4472.5095     5429.8533     1948.9987        5.3507        0.0000        1.9170
   10761.97290    24640.2250    26153.2925    15734.5400    22959.4900     1665.2700     4515.7550     5463.9425     1962.1375        6.2175        0.0000        1.9300
   10764.92560    24781.8150    26299.2995    15818.0760    23082.2060     1683.7380     4563.5970     5510.4095     1981.3425        6.0945        0.0000        1.9420
   10767.89728    24932.2875    26463.2238    15916.4900    23224.8150     1705.2450     4612.8425     5557.4987     1997.4813        6.9612        0.0000        1.9550
   10770.88173    25059.8775    26608.2307    16004.0260    23346.5310     1717.7130     4644.6845     5589.9657     2012.6862        6.8382        0.0000        1.9670
   10773.89136    25237.3500    26789.1550    16109.4400    23526.1400     1732.2200     4700.9300     5639.0550     2036.8250        6.7050        0.0000        1.9800
   10776.91379    25326.9400    26900.1620    16181.9760    23617.8560     1725.6880     4714.7720     5645.5220     2045.0300        6.5820        0.0000        1.9920
   10779.96142    25503.4125    27072.0863    16286.3900    23771.4650     1731.1950     4767.0175     5696.6112     2070.1687        6.4488        0.0000        2.0050
   10783.02805    25664.0025    27250.0933    16392.9260    23921.1810     1720.6630     4795.8595     5724.0783     2089.3738        6.3257        0.0000        2.0170
   10786.10749    25819.4750    27415.0175    16494.3400    24063.7900     1722.1700     4850.1050     5782.1675     2120.5125        6.1925        0.0000        2.0300
   10789.21215    25932.0650    27535.0245    16562.8760    24163.5060     1721.6380     4876.9470     5808.6345     2138.7175        6.0695        0.0000        2.0420
   10792.33584    26080.5375    27676.9487    16641.2900    24256.1150     1728.1450     4909.1925     5832.7237     2158.8562        6.9362        0.0000        2.0550
   10795.47856    26215.1275    27822.9558    16723.8260    24353.8310     1735.6130     4947.0345     5857.1907     2180.0613        6.8132        0.0000        2.0670
   10798.63411    26392.6000    28017.8800    16840.2400    24430.4400     1750.1200     4980.2800     5879.2800     2193.2000        6.6800        0.0000        2.0800
   10801.81492    26488.1900    28113.8870    16887.7760    23649.1560     1761.5880     5002.1220     5886.7470     2133.4050        6.5570        0.0000        2.0920
   10805.01478    26664.6625    28289.8112    16946.1900    24969.7650     1783.0950     5035.3675     5905.8363     2254.5437        6.4238        0.0000        2.1050
   10808.22749    26784.2525    28406.8183    16520.7260    25210.4810     1805.5630     5058.2095     5822.3032     2287.7488        7.3008        0.0000        2.1170
   10811.46548    26940.7250    28517.7425    17041.1400    25295.0900     1826.0700     5070.4550     5838.3925     2294.8875        7.1675        0.0000        2.1300
   10814.72254    27077.3150    28154.7495    17447.6760    25392.8060     1849.5380     5030.2970     6118.8595     2312.0925        7.0445        0.0000        2.1420
   10817.99247    27176.7875    28241.6738    17500.0900    25520.4150     1869.0450     4980.5425     6168.9488     2323.2312        6.9113        0.0000        2.1550
   10821.28770    27023.3775    29280.6807    17563.6260    25630.1310     1870.5130     5207.3845     6221.4158     2331.4363        7.7883        0.0000        2.1670
   10824.60203    26769.8500    29356.6050    17649.0400    25762.7400     1880.0200     5226.6300     6295.5050     2344.5750        7.6550        0.0000        2.1800
   10827.92924    27831.4400    29470.6120    17720.5760    25874.4560     1933.4880     5199.4720     6301.9720     2342.7800        7.5320        0.0000        2.1920
   10831.28178    27891.9125    29592.5363    17804.9900    26002.0650     1952.9950     5242.7175     6374.0612     2361.9187        8.3987        0.0000        2.2050
   10834.64722    28020.5025    29746.5432    17894.5260    26005.7810     1977.4630     5303.5595     6466.5282     2380.1238        7.2757        0.0000        2.2170
   10838.03800    28148.9750    29770.4675    17993.9400    26284.3900     1991.9700     5308.8050     6510.6175     2407.2625        8.1425        0.0000        2.2300
   10841.44791    28315.5650    30068.4745    18090.4760    26414.1060     2012.4380     5380.6470     6560.0845     2435.4675        7.0195        0.0000        2.2420
   10844.87074    28403.0375    30117.3988    18159.8900    26531.7150     2019.9450     5399.8925     6579.1737     2455.6062        7.8863        0.0000        2.2550
   10848.31894    28595.6275    30369.4058    18277.4260    26702.4310     2036.4130     5457.7345     6620.6408     2480.8113        8.7632        0.0000        2.2670
   10851.78007    28710.1000    30492.3300    18347.8400    26802.0400     2042.9200     5486.9800     6644.7300     2496.9500        8.6300        0.0000        2.2800
   10855.26659    28880.6900    30675.3370    18454.3760    26950.7560     2052.3880     5525.8220     6690.1970     2511.1550        8.5070        0.0000        2.2920
   10858.76605    29023.1625    30844.2612    18563.7900    27117.3650     2060.8950     5572.0675     6757.2862     2531.2937        8.3737        0.0000        2.3050
   10862.29091    29154.7525    30923.2683    18578.3260    27205.0810     2059.3630     5592.9095     6776.7532     2537.4988        8.2507        0.0000        2.3170
   10865.82872    29245.2250    30979.1925    18641.7400    27130.6900     2057.8700     5619.1550     6822.8425     2534.6375        8.1175        0.0000        2.3300
   10869.39196    29402.8150    31136.1995    18836.2760    27519.4060     2060.3380     5652.9970     6906.3095     2571.8425        8.9945        0.0000        2.3420
   10872.96816    29586.2875    31462.1237    18939.6900    27676.0150     2069.8450     5737.2425     6969.3988     2588.9812        8.8613        0.0000        2.3550
   10876.56981    29727.8775    31579.1308    18959.2260    27655.7310     2078.3130     5773.0845     6999.8657     2596.1863        7.7383        0.0000        2.3670
   10880.18443    29872.3500    31743.0550    19101.6400    27906.3400     2094.8200     5819.3300     7073.9550     2628.3250        8.6050        0.0000        2.3800
   10883.81828    29991.9400    31867.0620    19176.1760    28014.0560     2120.2880     5858.1720     7123.4220     2646.5300        8.4820        0.0000        2.3920
   10887.47758    30136.4125    32022.9863    19273.5900    28168.6650     2149.7950     5914.4175     7189.5113     2672.6687        8.3488        0.0000        2.4050
   10891.14990    30332.0025    32223.9932    19383.1260    28310.3810     2185.2630     5964.2595     7236.9783     2692.8738        8.2258        0.0000        2.4170
   10894.84145    30442.4750    32352.9175    19470.5400    28454.9900     2209.7700     6008.5050     7276.0675     2713.0125        9.0925        0.0000        2.4300
   10898.55849    30586.0650    32504.9245    19561.0760    28581.7060     2238.2380     6061.3470     7314.5345     2739.2175        8.9695        0.0000        2.4420
   10902.28856    30748.5375    32696.8488    19679.4900    28765.3150     2256.7450     6107.5925     7351.6237     2762.3562        9.8362        0.0000        2.4550
   10906.03790    30799.1275    32743.8557    19718.0260    28835.0310     2270.2130     6135.4345     7364.0907     2777.5613        9.7132        0.0000        2.4670
   10909.80651    31000.6000    32956.7800    19835.4400    29003.6400     2290.7200     6188.6800     7403.1800     2801.7000        9.5800        0.0000        2.4800
   10913.59440    31163.1900    33131.7870    19937.9760    29145.3560     2311.1880     6249.5220     7461.6470     2834.9050        9.4570        0.0000        2.4920
   10917.40159    31296.6625    33277.7113    20030.3900    29284.9650     2323.6950     6294.7675     7503.7362     2857.0437       10.3238        0.0000        2.5050
   10921.22807    31459.2525    33458.7182    20140.9260    29452.6810     2336.1630     6340.6095     7547.2033     2881.2488       10.2007        0.0000        2.5170
   10925.07386    31577.7250    33588.6425    20221.3400    29580.2900     2353.6700     6389.8550     7588.2925     2905.3875       11.0675        0.0000        2.5300
   10928.93897    31687.3150    33673.6495    20213.8760    29611.0060     2371.1380     6428.6970     7596.7595     2921.5925        9.9445        0.0000        2.5420
   10932.82340    31856.7875    33880.5738    20391.2900    29833.6150     2391.6450     6476.9425     7664.8487     2945.7312       10.8112        0.0000        2.5550
   10936.72716    31997.3775    34031.5808    20484.8260    29966.3310     2407.1130     6521.7845     7724.3157     2970.9363       10.6882        0.0000        2.5670
   10940.65026    32099.8500    34151.5050    20561.2400    30083.9400     2415.6200     6556.0300     7773.4050     2988.0750       10.5550        0.0000        2.5800
   10944.58646    32166.4400    34143.5120    20572.7760    30203.6560     2420.0880     6568.8720     7803.8720     3002.2800       11.4320        0.0000        2.5920
   10948.54826    32376.9125    34437.4362    20727.1900    30325.2650     2440.5950     6643.1175     7900.9613     3026.4187       11.2988        0.0000        2.6050
   10952.52943    32535.5025    34619.4432    20844.7260    30499.9810     2453.0630     6687.9595     7974.4282     3054.6238       11.1758        0.0000        2.6170
   10956.52372    32686.9750    34777.3675    20936.1400    30635.5900     2467.5700     6741.2050     8050.5175     3078.7625       11.0425        0.0000        2.6300
   10960.54364    32817.5650    34917.3745    21014.6760    30746.3060     2471.0380     6779.0470     8101.9845     3099.9675       10.9195        0.0000        2.6420
   10964.57669    32961.0375    34982.2988    21048.0900    30915.9150     2477.5450     6804.2925     8126.0738     3131.1062       11.7863        0.0000        2.6550
   10968.63540    33082.6275    35190.3057    21187.6260    31000.6310     2483.0130     6851.1345     8180.5408     3150.3113       11.6633        0.0000        2.6670
   10972.70725    32505.1000    35345.2300    21268.0400    31105.2400     2445.5200     6897.3800     8215.6300     3175.4500       11.5300        0.0000        2.6800
   10976.79852    33338.6900    34867.2370    21356.5760    31229.9560     2510.9880     6831.2220     8259.0970     3201.6550       11.4070        0.0000        2.6920
   10980.91546    33507.1625    35633.1612    21427.9900    30911.5650     2536.4950     6976.4675     8293.1862     3186.7937       12.2737        0.0000        2.7050
   10985.04558    33664.7525    35780.1683    21515.5260    31417.2810     2555.9630     6976.3095     8294.6532     3226.9988       12.1507        0.0000        2.7170
   10989.19513    33810.2250    35940.0925    21610.9400    31539.8900     2602.4700     7042.5550     8377.7425     3261.1375       12.0175        0.0000        2.7300
   10993.36413    33345.8150    35595.0995    21442.4760    31304.6060     2590.9380     6984.3970     8334.2095     3245.3425       11.8945        0.0000        2.7420
   10997.55258    34152.2875    36305.0238    21823.8900    31832.2150     2670.4450     7132.6425     8504.2987     3306.4812       12.7613        0.0000        2.7550
   11001.76049    34243.8775    36403.0307    21876.4260    31899.9310     2698.9130     7175.4845     8570.7658     3324.6863       12.6382        0.0000        2.7670
   11005.98788    34387.3500    36552.9550    21967.8400    32027.5400     2729.4200     7228.7300     8659.8550     3347.8250       13.5050        0.0000        2.7800
   11010.23474    34491.9400    36656.9620    22015.3760    32038.2560     2747.8880     7260.5720     8722.3220     3353.0300       12.3820        0.0000        2.7920
   11014.49483    34675.4125    36859.8863    22153.7900    32298.8650     2773.3950     7316.8175     8810.4112     3389.1687       13.2487        0.0000        2.8050
   11018.78068    34432.0025    36615.8933    22061.3260    32343.5810     2754.8630     7281.6595     8795.8782     3398.3738       14.1257        0.0000        2.8170
   11023.08604    34945.4750    37175.8175    22350.7400    32592.1900     2796.3700     7410.9050     8935.9675     3431.5125       13.9925        0.0000        2.8300
   11027.40464    34728.0650    37309.8245    22468.2760    32760.9060     2771.8380     7455.7470     9000.4345     3460.7175       13.8695        0.0000        2.8420
   11031.74903    35258.5375    37461.7487    22242.6900    32901.5150     2818.3450     7511.9925     8908.5238     3486.8562       13.7363        0.0000        2.8550
   11036.10668    35378.1275    37613.7557    22596.2260    32379.2310     2825.8130     7556.8345     9088.9908     3441.0613       12.6133        0.0000        2.8670
   11040.48387    35541.6000    37788.6800    22708.6400    33075.8400     2836.3200     7612.0800     9150.0800     3523.2000       13.4800        0.0000        2.8800
   11044.88687    35695.1900    37945.6870    22796.1760    33186.5560     2842.7880     7655.9220     9186.5470     3547.4050       13.3570        0.0000        2.8920
   11049.30317    35839.6625    38101.6113    22892.5900    33319.1650     2848.2950     7688.1675     9209.6362     3569.5437       13.2238        0.0000        2.9050
   11053.73902    35950.2525    38205.6182    22950.1260    33393.8810     2866.7630     7749.0095     9264.1033     3598.7488       14.1008        0.0000        2.9170
   11058.19445    36078.7250    38342.5425    23033.5400    33504.4900     2881.2700     7804.2550     9314.1925     3627.8875       13.9675        0.0000        2.9300
   11062.66946    36191.3150    38462.5495    23106.0760    33604.2060     2891.7380     7837.0970     9336.6595     3650.0925       13.8445        0.0000        2.9420
   11067.15779    36325.7875    38605.4737    23184.4900    33718.8150     2910.2450     7883.3425     9365.7487     3675.2312       14.7112        0.0000        2.9550
   11071.67199    36439.3775    38730.4808    23264.0260    33843.5310     2939.7130     7947.1845     9431.2157     3714.4363       15.5882        0.0000        2.9670
   11076.20580    36593.8500    38894.4050    23358.4400    33969.1400     2968.2200     8016.4300     9503.3050     3748.5750       14.4550        0.0000        2.9800
   11080.75294    36719.4400    39027.4120    23434.9760    34079.8560     2994.6880     8075.2720     9578.7720     3779.7800       14.3320        0.0000        2.9920
   11085.32600    36866.9125    39180.3363    23522.3900    34196.4650     3018.1950     8126.5175     9650.8612     3803.9187       14.1988        0.0000        3.0050
   11089.91240    36997.5025    39325.3432    23613.9260    34327.1810     3042.6630     8183.3595     9727.3283     3833.1238       15.0757        0.0000        3.0170
   11094.51845    37096.9750    39425.2675    23671.3400    34406.7900     3064.1700     8218.6050     9778.4175     3849.2625       15.9425        0.0000        3.0300
   11099.14415    37228.5650    39573.2745    23766.8760    34548.5060     3098.6380     8290.4470     9864.8845     3881.4675       15.8195        0.0000        3.0420
   11103.78950    37354.0375    39710.1988    23845.2900    34671.1150     3131.1450     8342.6925     9928.9738     3906.6062       15.6862        0.0000        3.0550
   11108.45453    37457.6275    39820.2058    23915.8260    34772.8310     3159.6130     8383.5345     9987.4407     3920.8113       16.5632        0.0000        3.0670
   11113.13924    37611.1000    39981.1300    24010.2400    34897.4400     3192.1200     8445.7800    10059.5300     3947.9500       16.4300        0.0000        3.0800
   11117.84363    37719.6900    40090.1370    24075.7760    34998.1560     3216.5880     8491.6220    10096.9970     3976.1550       16.3070        0.0000        3.0920
   11122.56772    37862.1625    40259.0612    24175.1900    35128.7650     3244.0950     8556.8675    10158.0863     4010.2937       17.1738        0.0000        3.1050
   11127.30523    37974.7525    40356.0682    24224.7260    35189.4810     3259.5630     8595.7095    10173.5533     4029.4988       17.0508        0.0000        3.1170
   11132.06874    38099.2250    40503.9925    24318.1400    35332.0900     3280.0700     8661.9550    10237.6425     4067.6375       16.9175        0.0000        3.1300
   11136.84568    38254.8150    40662.9995    24404.6760    35451.8060     3291.5380     8707.7970    10276.1095     4089.8425       17.7945        0.0000        3.1420
   11141.64235    38405.2875    40818.9238    24492.0900    35565.4150     3308.0450     8764.0425    10331.1987     4118.9812       17.6613        0.0000        3.1550
   11146.45876    38534.8775    40954.9307    24575.6260    35671.1310     3319.5130     8816.8845    10390.6658     4146.1862       17.5383        0.0000        3.1670
   11151.29492    38661.3500    41079.8550    24647.0400    35759.7400     3325.0200     8844.1300    10412.7550     4157.3250       18.4050        0.0000        3.1800
   11156.15084    38762.9400    41190.8620    24711.5760    35860.4560     3337.4880     8896.9720    10473.2220     4186.5300       18.2820        0.0000        3.1920
   11161.02653    38863.4125    41298.7862    24774.9900    35945.0650     3354.9950     8956.2175    10549.3112     4214.6687       18.1487        0.0000        3.2050
   11165.92199    38944.0025    41395.7933    24839.5260    36057.7810     3366.4630     8998.0595    10624.7782     4243.8737       18.0258        0.0000        3.2170
   11170.83094    39071.4750    41551.7175    24941.9400    36217.3900     3386.9700     9068.3050    10735.8675     4285.0125       17.8925        0.0000        3.2300
   11175.76599    39204.0650    41679.7245    25017.4760    36317.1060     3403.4380     9110.1470    10818.3345     4313.2175       18.7695        0.0000        3.2420
   11180.71454    39183.5375    41836.6488    25111.8900    36456.7150     3410.9450     9168.3925    10921.4237     4346.3562       19.6363        0.0000        3.2550
   11185.68290    39489.1275    41969.6557    25170.4260    36559.4310     3455.4130     9221.2345    10995.8908     4374.5612       19.5132        0.0000        3.2670
   11190.67108    39653.6000    42182.5800    25327.8400    36568.0400     3488.9200     9294.4800    11105.9800     4392.7000       19.3800        0.0000        3.2800
   11195.67909    39786.1900    42311.5870    25392.3760    36859.7560     3518.3880     9346.3220    11154.4470     4441.9050       19.2570        0.0000        3.2920
   11200.70694    39930.6625    42480.5113    25492.7900    37004.3650     3548.8950     9404.5675    11208.5363     4478.0437       20.1238        0.0000        3.3050
   11205.75465    40056.2525    42616.5183    25577.3260    37125.0810     3576.3630     9464.4095    11252.0032     4511.2487       20.0007        0.0000        3.3170
   11210.81590    40165.7250    42723.4425    25634.7400    37205.6900     3600.8700     9518.6550    11296.0925     4542.3875       20.8675        0.0000        3.3300
   11215.90333    40275.3150    42851.4495    25717.2760    37328.4060     3624.3380     9577.4970    11349.5595     4578.5925       20.7445        0.0000        3.3420
   11221.00433    40169.7875    42965.3737    25793.6900    37444.0150     3630.8450     9621.7425    11394.6488     4606.7312       20.6112        0.0000        3.3550
   11226.12521    40465.3775    42981.3807    25773.2260    37475.7310     3674.3130     9657.5845    11400.1158     4630.9362       20.4883        0.0000        3.3670
   11231.26598    40629.8500    43236.3050    25953.6400    37333.3400     3717.8200     9740.8300    11502.2050     4629.0750       21.3550        0.0000        3.3800
   11236.42667    40772.4400    43392.3120    26035.1760    37774.0560     3753.2880     9797.6720    11550.6720     4703.2800       21.2320        0.0000        3.3920
   11241.60726    40900.9125    43520.2363    26104.5900    37860.6650     3798.7950     9865.9175    11612.7612     4731.4187       22.0988        0.0000        3.4050
   11246.80146    40670.5025    43557.2432    26167.1260    37955.3810     3799.2630     9901.7595    11676.2283     4763.6237       22.9758        0.0000        3.4170
   11252.02191    41151.9750    43620.1675    26240.5400    38061.9900     3851.7700     9946.0050    11746.3175     4793.7625       21.8425        0.0000        3.4300
   11257.25598    41266.5650    43908.1745    26337.0760    38122.7060     3876.2380    10050.8470    11856.7845     4824.9675       22.7195        0.0000        3.4420
   11262.51001    41339.0375    44031.0987    26411.4900    38307.3150     3887.7450    10101.0925    11931.8737     4862.1062       23.5862        0.0000        3.4550
   11267.79031    41510.6275    44172.1058    26489.0260    38381.0310     3905.2130    10171.9345    12025.3407     4891.3112       23.4633        0.0000        3.4670
   11273.07794    41597.1000    44275.0300    26549.4400    38489.6400     3910.7200    10217.1800    12093.4300     4916.4500       23.3300        0.0000        3.4800
   11278.39187    41796.6900    44140.0370    26623.9760    37877.3560     3925.1880    10216.0220    12167.8970     4862.6550       22.2070        0.0000        3.4920
   11283.72580    41831.1625    43733.9613    26646.3900    38511.9650     3924.6950    10173.2675    12219.9862     4961.7937       24.0738        0.0000        3.5050
   11289.07339    41858.7525    44667.9682    26789.9260    38812.6810     3925.1630    10402.1095    12302.4533     5015.9987       23.9507        0.0000        3.5170
   11294.44731    42127.2250    44820.8925    26872.3400    38916.2900     3951.6700    10478.3550    12377.5425     5055.1375       23.8175        0.0000        3.5300
   11299.83492    42270.8150    44950.8995    26928.8760    38962.0060     3978.1380    10539.1970    12432.0095     5081.3425       23.6945        0.0000        3.5420
   11305.24256    42306.2875    44979.8238    26949.2900    38996.6150     4000.6450    10573.4425    12462.0988     5108.4812       24.5613        0.0000        3.5550
   11310.67024    42446.8775    45136.8308    27040.8260    39129.3310     4036.1130    10649.2845    12522.5657     5151.6862       24.4382        0.0000        3.5670
   11316.11162    42587.3500    45293.7550    27142.2400    39260.9400     4073.6200    10713.5300    12571.6550     5190.8250       25.3050        0.0000        3.5800
   11321.57939    42661.9400    45380.7620    27193.7760    39346.6560     4105.0880    10766.3720    12605.1220     5222.0300       26.1820        0.0000        3.5920
   11327.06089    42761.4125    45482.6862    27251.1900    39438.2650     4141.5950    10838.6175    12663.2113     5261.1687       26.0487        0.0000        3.6050
   11332.56246    42806.0025    45534.6932    27290.7260    39515.9810     4165.0630    10873.4595    12696.6783     5286.3737       25.9258        0.0000        3.6170
   11338.09045    42963.4750    45663.6175    27354.1400    39516.5900     4203.5700    10939.7050    12761.7675     5306.5125       27.7925        0.0000        3.6300
   11343.62586    42673.0650    45742.6245    26839.6760    39752.3060     4186.0380    10988.5470    12555.2345     5357.7175       26.6695        0.0000        3.6420
   11349.18770    42384.5375    45784.5488    27439.0900    39769.9150     4169.5450    11023.7925    12895.3237     5375.8562       27.5363        0.0000        3.6550
   11354.76966    43185.1275    45885.5557    27586.6260    39977.6310     4285.0130    11115.6345    13054.7908     5440.0612       28.4133        0.0000        3.6670
   11360.36539    43368.6000    46183.4800    27509.0400    40147.2400     4321.5200    11209.8800    13062.8800     5481.2000       28.2800        0.0000        3.6800
   11365.98125    43541.1900    46360.4870    27796.5760    40244.9560     4363.9880    11296.7220    13286.3470     5518.4050       29.1570        0.0000        3.6920
   11371.61725    43653.6625    46464.4112    27770.9900    40157.5650     4391.4950    11348.9675    13322.4362     5520.5437       29.0237        0.0000        3.7050
   11377.27340    43742.2525    46657.4183    27984.5260    40564.2810     4420.9630    11434.8095    13474.9032     5604.7487       29.9008        0.0000        3.7170
   11382.94971    43908.7250    46751.3425    27965.9400    40584.8900     4459.4700    11494.0550    13505.9925     5631.8875       29.7675        0.0000        3.7300
   11388.63983    43973.3150    46860.3495    28090.4760    40684.6060     4467.9380    11501.8970    13545.4595     5643.0925       30.6445        0.0000        3.7420
   11394.35648    44044.7875    46848.2738    28049.8900    40567.2150     4488.4450    11549.1425    13584.5487     5661.2312       29.5113        0.0000        3.7550
